timestamps,TP9,AF7,AF8,TP10,Right AUX
1674564082.694,-56.641,-37.598,-466.797,-48.828,121.094
1674564082.698,-218.750,-43.945,-268.066,-67.383,-172.363
1674564082.702,-193.848,-42.969,-333.008,-61.523,-160.645
1674564082.706,135.742,-42.969,-351.562,-57.617,-98.633
1674564082.710,182.617,-40.039,-317.871,-69.824,-125.488
1674564082.714,-41.504,-41.992,-353.516,-63.965,-9.766
1674564082.718,-226.074,-45.410,-478.027,-48.828,153.809
1674564082.721,-231.445,-43.945,-534.180,-39.551,250.977
1674564082.725,96.191,-49.316,-274.902,-55.664,58.105
1674564082.729,194.824,-61.523,-280.273,-68.359,-150.391
1674564082.733,-21.973,-61.035,-374.512,-51.758,-104.980
1674564082.737,-218.262,-58.105,-328.613,-45.898,-91.797
1674564082.740,-264.160,-51.270,-322.266,-47.852,-136.230
1674564082.744,31.738,-38.574,-372.070,-42.480,-96.191
1674564082.748,180.664,-34.668,-421.387,-37.598,17.578
1674564082.752,7.324,-38.574,-379.883,-41.016,37.598
1674564082.756,-193.848,-45.410,-337.402,-49.805,-113.770
1674564082.760,-271.484,-47.363,-348.633,-52.734,-101.074
1674564082.764,2.441,-27.344,-500.000,-30.273,230.957
1674564082.767,201.660,-14.648,-494.629,-31.738,278.809
1674564082.771,59.082,-19.531,-311.523,-51.758,-36.621
1674564082.775,-150.879,-22.461,-398.926,-35.645,-33.203
1674564082.779,-258.789,-20.508,-418.457,-24.902,126.465
1674564082.783,-20.020,-24.414,-300.781,-38.574,68.848
1674564082.784,213.379,-25.879,-250.977,-45.898,-99.121
1674564082.788,74.707,-20.508,-353.027,-33.691,-101.562
1674564082.792,-131.836,-20.996,-398.926,-30.273,-56.641
1674564082.796,-253.906,-25.879,-319.336,-33.691,-56.152
1674564082.800,-48.828,-24.902,-320.312,-28.809,-33.203
1674564082.804,240.234,-9.766,-427.734,-13.672,55.176
1674564082.808,128.906,0.000,-663.086,6.348,362.793
1674564082.811,-83.984,-19.043,-504.883,-1.465,261.719
1674564082.815,-211.426,-24.902,-286.621,-10.742,-137.695
1674564082.819,-83.008,-3.418,-346.680,-28.320,-98.633
1674564082.823,218.750,-4.883,-320.801,-44.434,-70.312
1674564082.827,168.457,-14.648,-285.156,-50.293,-135.742
1674564082.844,-62.500,-14.160,-324.219,-61.035,-151.367
1674564082.848,-220.703,-12.207,-382.324,-39.551,-140.137
1674564082.852,-115.723,-20.996,-314.453,-35.156,-96.680
1674564082.856,215.820,-29.785,-269.043,-53.711,-100.098
1674564082.860,197.266,-20.020,-333.008,-53.223,-119.629
1674564082.864,-37.109,-20.508,-435.547,-44.434,50.293
1674564082.868,-214.355,-24.414,-389.160,-45.410,82.520
1674564082.871,-175.293,-30.273,-343.262,-47.852,-28.809
1674564082.875,154.297,-35.156,-332.520,-43.457,54.688
1674564082.879,187.500,-29.785,-502.441,-25.879,254.395
1674564082.883,-42.480,-23.926,-608.398,-11.719,429.688
1674564082.887,-214.355,-21.484,-414.551,-33.203,87.402
1674564082.889,-210.938,-26.855,-379.883,-41.992,-98.633
1674564082.893,110.352,-23.926,-339.844,-34.668,-10.254
1674564082.897,217.773,-24.414,-299.805,-38.574,-130.371
1674564082.901,5.859,-29.785,-288.086,-38.086,-117.676
1674564082.905,-187.012,-24.414,-377.441,-22.461,-19.043
1674564082.909,-194.824,-25.391,-435.059,-15.625,70.312
1674564082.913,89.844,-24.414,-384.277,-23.926,96.680
1674564082.916,213.379,-15.625,-284.180,-32.227,5.371
1674564082.920,38.574,-6.836,-405.762,-11.230,56.641
1674564082.924,-168.457,1.465,-549.805,12.207,277.832
1674564082.928,-240.723,-3.418,-336.914,-16.113,135.742
1674564082.932,36.133,-21.973,-344.238,-31.738,-34.668
1674564082.934,229.980,-21.973,-440.430,-12.695,41.016
1674564082.938,71.289,-18.066,-432.129,-12.695,35.156
1674564082.942,-114.746,-22.949,-306.641,-24.414,-90.332
1674564082.946,-181.641,-17.090,-304.688,-15.625,-36.621
1674564082.950,48.340,-1.953,-364.746,-2.930,34.180
1674564082.954,251.953,-4.883,-383.301,-6.348,106.445
1674564082.958,122.559,-18.555,-360.352,-11.230,134.277
1674564082.961,-87.891,-17.578,-314.453,-15.137,43.945
1674564082.965,-233.887,-13.672,-512.695,1.465,256.348
1674564082.969,-33.691,-16.113,-550.781,6.836,422.852
1674564082.973,264.648,-22.461,-267.578,-29.297,13.184
1674564082.977,158.203,-17.090,-322.266,-32.227,-135.254
1674564082.996,-75.195,-15.625,-378.418,-21.484,-44.434
1674564083.000,-239.746,-16.602,-313.965,-33.203,-113.770
1674564083.004,-97.168,-4.395,-328.125,-34.180,-107.422
1674564083.008,207.031,-0.488,-385.254,-20.020,14.648
1674564083.012,142.578,-4.883,-412.109,-13.672,83.008
1674564083.016,-76.172,-10.742,-389.648,-14.648,25.879
1674564083.020,-236.328,-14.648,-358.398,-19.531,79.590
1674564083.023,-162.109,-13.184,-445.801,-22.461,150.879
1674564083.027,149.414,-20.508,-525.879,-19.043,241.211
1674564083.031,167.969,-24.414,-295.410,-35.645,72.266
1674564083.035,-45.898,-1.953,-274.414,-36.133,-77.637
1674564083.039,-226.074,9.766,-348.633,-17.090,41.992
1674564083.024,-199.707,-1.465,-292.969,-22.949,47.363
1674564083.028,123.535,-10.742,-238.281,-33.203,-11.719
1674564083.032,179.688,-9.766,-302.734,-29.297,-17.578
1674564083.036,-42.480,-4.883,-369.141,-22.461,16.602
1674564083.040,-238.770,-3.906,-376.465,-25.391,8.301
1674564083.044,-286.133,-2.930,-382.324,-32.227,43.945
1674564083.048,16.602,-5.371,-378.906,-33.203,60.547
1674564083.051,140.137,-20.020,-420.410,-41.504,69.336
1674564083.055,22.461,-21.973,-412.598,-36.621,56.152
1674564083.059,-83.496,-16.113,-376.953,-29.785,-60.547
1674564083.063,-250.000,-22.949,-319.824,-46.387,-147.461
1674564083.067,-67.871,-13.672,-493.652,-37.598,106.934
1674564083.069,133.301,-11.719,-630.859,-22.461,424.805
1674564083.073,89.355,-27.832,-368.652,-34.668,115.234
1674564083.077,19.531,-20.020,-333.496,-27.344,-116.211
1674564083.081,-252.441,-12.695,-391.602,-31.250,-47.363
1674564083.085,-204.590,-12.207,-344.238,-44.434,-105.469
1674564083.089,96.191,-3.906,-377.930,-35.156,-72.266
1674564083.093,169.434,-6.348,-458.984,-16.602,165.527
1674564083.096,109.375,-3.418,-503.418,9.277,356.934
1674564083.100,-311.035,-2.930,-368.652,-20.020,98.145
1674564083.104,-362.793,-9.277,-368.164,-41.992,-92.285
1674564083.108,60.547,-15.137,-475.098,-16.113,-11.719
1674564083.112,196.289,-17.090,-433.594,-7.324,49.316
1674564083.116,201.172,0.000,-242.188,-5.371,-70.801
1674564083.120,-102.051,8.789,-301.270,-8.789,-131.348
1674564083.124,-275.879,0.488,-370.605,-32.227,-89.355
1674564083.128,58.594,4.395,-318.848,-33.691,-126.953
1674564083.132,179.199,5.859,-331.055,-7.324,-134.766
1674564083.136,162.109,-4.395,-361.816,4.883,-102.539
1674564083.140,-149.902,-2.930,-503.906,-32.715,190.918
1674564083.143,-377.930,-5.859,-520.508,-62.988,267.090
1674564083.147,6.836,-10.742,-326.660,-58.105,-121.094
1674564083.151,137.695,-11.230,-389.160,-51.758,-167.969
1674564083.155,149.414,-10.254,-359.863,-26.367,44.434
1674564083.159,-51.758,-12.695,-297.852,-34.180,-13.672
1674564083.159,-361.328,-13.672,-346.680,-62.500,-187.988
1674564083.163,-39.551,-14.648,-360.352,-51.270,-115.723
1674564083.167,146.973,-20.996,-367.676,-40.039,14.648
1674564083.171,126.953,-22.949,-253.906,-36.621,-46.875
1674564083.175,-36.133,-15.625,-234.863,-34.668,-179.688
1674564083.179,-375.488,-12.695,-442.383,-41.016,-66.406
1674564083.183,-163.086,-14.648,-495.117,-44.434,34.668
1674564083.186,96.680,-8.789,-290.527,-47.363,-111.328
1674564083.190,95.703,-8.301,-198.730,-40.039,-213.867
1674564083.194,-54.688,-6.836,-356.445,-20.020,-87.891
1674564083.198,-401.855,-3.418,-451.172,-32.715,26.855
1674564083.202,-209.473,-9.277,-233.398,-52.246,-69.824
1674564083.218,83.984,-11.719,-234.863,-38.086,-128.906
1674564083.222,104.980,-0.488,-276.855,-15.625,-35.645
1674564083.226,21.973,2.930,-194.336,-4.883,17.578
1674564083.230,-372.070,-3.906,-269.531,-15.137,-32.715
1674564083.234,-265.137,-3.418,-322.754,-18.066,-57.129
1674564083.238,77.637,-4.883,-459.473,1.465,219.238
1674564083.242,127.441,-14.160,-451.660,13.672,404.785
1674564083.245,62.988,-11.719,-170.898,-0.488,24.902
1674564083.249,-292.969,-8.789,-214.355,-20.020,-80.078
1674564083.253,-313.965,-10.254,-457.520,-18.066,247.070
1674564083.257,14.648,-9.766,-409.668,-19.531,255.371
1674564083.261,192.871,-11.230,-115.723,-28.320,-85.449
1674564083.264,173.828,-7.324,-115.234,-14.160,-79.590
1674564083.268,-238.281,-14.648,-219.238,-32.715,-11.230
1674564083.272,-347.168,-20.508,-229.492,-60.547,-16.602
1674564083.276,42.969,-20.508,-184.570,-52.246,-82.031
1674564083.280,213.379,-20.508,-270.508,-30.273,-102.051
1674564083.284,229.492,-11.230,-321.289,-14.160,60.547
1674564083.288,-166.016,-13.184,-301.758,-23.438,76.172
1674564083.291,-382.324,-10.742,-321.777,-46.875,-83.984
1674564083.295,44.922,-13.184,-380.859,-36.621,-93.262
1674564083.299,239.258,-10.742,-548.828,-8.301,226.074
1674564083.303,288.574,-4.883,-306.641,-13.672,169.434
1674564083.307,-91.797,-9.277,-208.496,-35.156,-183.105
1674564083.308,-481.445,-6.348,-344.238,-54.688,-182.617
1674564083.312,-32.227,-11.719,-268.066,-49.805,-154.297
1674564083.316,266.113,-24.902,-172.852,-32.227,-141.602
1674564083.320,336.914,-30.273,-42.480,-19.043,-104.492
1674564083.324,-70.801,-19.531,-190.918,-32.715,-79.102
1674564083.328,-622.070,-18.555,-403.809,-60.547,-61.035
1674564083.332,-98.633,-25.879,-331.055,-43.945,-4.883
1674564083.335,287.598,-13.184,-225.098,-29.297,-113.770
1674564083.339,348.633,-1.465,-376.465,-2.930,122.559
1674564083.343,-16.113,-8.789,-496.094,-1.465,429.688
1674564083.347,-685.059,-27.832,-338.379,-67.383,31.250
1674564083.351,-189.453,-30.273,-268.555,-72.754,-187.988
1674564083.353,289.062,-20.020,-318.359,-40.039,-122.070
1674564083.357,360.352,-19.043,-126.953,-14.160,-142.090
1674564083.361,108.887,-27.832,32.715,-9.277,-203.613
1674564083.365,-626.953,-38.086,-266.602,-50.781,-196.289
1674564083.369,-305.176,-28.809,-416.016,-62.012,-160.156
1674564083.373,250.000,-17.578,-331.055,-44.434,-111.816
1674564083.377,358.398,-20.996,-258.301,-23.926,-145.508
1674564083.380,183.594,-31.738,-361.816,-15.137,-67.871
1674564083.384,-546.875,-39.551,-532.227,-36.621,168.457
1674564083.388,-368.164,-33.203,-297.363,-54.199,24.902
1674564083.392,230.469,-19.531,-212.891,-31.738,-176.758
1674564083.396,343.262,-22.949,-237.305,-5.371,-48.828
1674564083.399,202.148,-21.973,-121.094,-11.719,-9.277
1674564083.403,-497.559,-7.324,-254.395,-42.969,-72.266
1674564083.407,-466.797,-13.184,-382.812,-55.664,-73.730
1674564083.411,148.926,-21.973,-337.402,-33.691,0.000
1674564083.415,329.102,-24.902,-315.430,-21.484,-10.254
1674564083.419,288.086,-22.461,-306.152,-14.648,-69.824
1674564083.423,-396.973,-14.160,-341.309,-45.410,-106.934
1674564083.426,-499.512,-21.484,-504.395,-57.129,44.434
1674564083.430,164.551,-28.320,-507.324,-31.738,248.535
1674564083.434,371.582,-31.250,-233.887,-42.480,10.254
1674564083.438,355.957,-28.320,-207.520,-32.715,-125.488
1674564083.442,-314.453,-17.578,-395.996,-42.480,-32.227
1674564083.443,-570.801,-14.648,-361.328,-74.219,-69.824
1674564083.447,117.188,-12.695,-241.211,-65.918,-209.473
1674564083.451,365.234,-25.879,-282.715,-40.527,-135.254
1674564083.455,348.633,-26.367,-270.020,-22.461,-53.711
1674564083.459,-223.145,-11.719,-303.711,-35.156,-132.812
1674564083.463,-609.375,-22.461,-410.156,-62.500,-132.812
1674564083.467,17.090,-31.738,-429.688,-48.828,-88.379
1674564083.470,298.828,-27.344,-597.656,-12.207,248.535
1674564083.474,324.219,-18.066,-378.906,-7.812,225.098
1674564083.478,-76.172,-17.090,-184.570,-33.203,-161.133
1674564083.482,-653.809,-17.090,-354.004,-60.547,-118.164
1674564083.486,-224.609,-14.160,-317.871,-62.012,-80.566
1674564083.488,227.051,-19.043,-236.328,-37.598,-158.203
1674564083.492,323.242,-25.391,-186.523,-14.160,-131.836
1674564083.496,-36.621,-36.133,-259.277,-20.020,-62.500
1674564083.500,-678.711,-33.691,-346.680,-49.316,-96.680
1674564083.504,-248.535,-20.996,-347.656,-38.086,-126.465
1674564083.508,231.445,-17.578,-344.727,-22.461,-82.520
1674564083.512,326.172,-18.066,-458.984,5.859,255.371
1674564083.515,38.574,-15.137,-473.145,-2.930,326.172
1674564083.519,-710.449,-11.230,-388.184,-58.594,13.184
1674564083.523,-332.520,-15.137,-371.094,-56.152,-80.566
1674564083.527,250.977,-16.113,-461.426,-22.461,155.273
1674564083.531,359.863,-16.602,-373.535,-8.789,216.797
1674564083.534,156.250,-12.695,-21.973,-25.391,-95.215
1674564083.538,-621.094,-9.766,-275.879,-47.363,-114.746
1674564083.542,-377.930,-14.160,-393.066,-57.129,-49.805
1674564083.546,281.738,-10.254,-227.539,-43.945,-49.805
1674564083.550,454.590,-3.906,-161.133,-22.949,-116.211
1674564083.554,274.902,-2.930,-301.758,-2.441,40.039
1674564083.558,-537.598,-6.348,-520.020,-33.691,214.844
1674564083.561,-410.156,-8.301,-369.141,-64.941,-20.996
1674564083.565,289.551,-9.277,-218.262,-46.387,-202.637
1674564083.569,463.379,-9.277,-344.238,-16.113,-39.551
1674564083.573,361.816,-6.348,-385.254,-4.395,85.938
1674564083.577,-426.758,-9.277,-314.941,-56.152,-26.367
1674564083.580,-495.605,-8.789,-351.074,-73.730,-146.484
1674564083.584,209.473,-12.695,-395.020,-41.504,-51.758
1674564083.588,432.617,-21.484,-327.637,-27.832,69.336
1674564083.592,394.531,-20.508,-142.578,-17.090,-69.336
1674564083.596,-252.930,-11.230,-300.781,-31.250,-142.090
1674564083.600,-558.105,-10.254,-470.703,-52.246,-44.922
1674564083.604,34.180,-3.418,-390.625,-38.574,-20.020
1674564083.607,402.344,2.441,-276.367,-25.879,-129.395
1674564083.611,428.223,-5.371,-239.746,-17.090,-46.875
1674564083.615,-251.953,-10.742,-502.441,-24.902,243.164
1674564083.619,-691.406,-21.484,-583.496,-48.828,253.418
1674564083.623,49.805,-22.461,-260.254,-45.410,-98.145
1674564083.639,387.695,-19.531,-289.062,-26.367,-181.641
1674564083.643,388.184,-22.461,-267.090,-3.418,-83.008
1674564083.647,-216.797,-16.113,-303.223,-28.809,-56.152
1674564083.651,-772.461,-3.418,-393.555,-71.777,-131.836
1674564083.655,-55.176,-0.977,-377.930,-43.945,-39.551
1674564083.659,334.473,-15.137,-493.652,-20.020,199.707
1674564083.663,375.977,-19.531,-333.008,-16.602,126.465
1674564083.666,-45.410,-19.531,-209.961,-27.344,-46.875
1674564083.670,-779.785,-20.508,-467.773,-48.828,-10.742
1674564083.674,-233.398,-21.973,-513.672,-28.320,120.605
1674564083.678,329.102,-32.715,-260.742,-20.508,-67.871
1674564083.682,395.508,-33.691,-197.266,-8.789,-141.113
1674564083.684,34.180,-21.484,-245.605,-11.230,10.742
1674564083.688,-722.656,-23.926,-374.512,-59.082,-23.438
1674564083.692,-326.660,-25.879,-332.520,-66.406,-108.398
1674564083.696,311.523,-20.996,-269.531,-33.203,-59.082
1674564083.700,362.305,-20.996,-329.102,-11.230,-7.812
1674564083.704,13.184,-20.020,-383.301,-18.555,-24.902
1674564083.708,-705.566,-17.578,-473.145,-53.711,-16.113
1674564083.711,-384.277,-24.902,-423.828,-61.035,-28.320
1674564083.715,290.039,-30.273,-474.609,-25.879,200.195
1674564083.719,437.012,-27.832,-610.840,13.184,541.992
1674564083.723,248.047,-24.902,-390.137,-1.465,270.508
1674564083.727,-603.516,-12.207,-380.859,-47.363,-97.168
1674564083.728,-455.566,-15.137,-394.531,-56.152,-106.934
1674564083.732,279.297,-19.043,-253.418,-40.527,-90.332
1674564083.736,458.496,-23.438,-220.215,-25.879,-161.621
1674564083.740,333.984,-33.203,-265.137,-24.414,-133.789
1674564083.744,-518.555,-25.391,-413.086,-49.805,-28.320
1674564083.748,-544.922,-28.809,-438.477,-54.688,-26.367
1674564083.752,231.934,-31.250,-325.195,-32.715,-43.945
1674564083.755,454.590,-18.066,-379.883,-7.812,58.594
1674564083.759,397.949,-20.996,-457.520,18.066,217.285
1674564083.763,-416.016,-22.949,-369.141,-27.832,101.074
1674564083.767,-612.305,-11.719,-337.402,-66.895,-135.742
1674564083.771,169.922,-14.160,-387.695,-35.156,-54.199
1674564083.773,414.062,-21.484,-370.605,-23.926,64.453
1674564083.777,444.824,-16.113,-116.211,-9.766,-69.336
1674564083.781,-306.152,-21.973,-267.090,-24.902,-139.648
1674564083.785,-752.930,-26.367,-425.781,-84.473,-115.234
1674564083.789,74.707,-10.742,-311.523,-55.176,-92.285
1674564083.793,390.625,-11.719,-329.590,-26.855,-103.027
1674564083.797,413.574,-14.648,-299.805,-19.043,-77.148
1674564083.800,-230.469,-15.137,-490.234,-17.578,116.211
1674564083.804,-834.961,-9.277,-603.027,-62.500,228.027
1674564083.808,-13.672,-5.859,-291.504,-53.711,-7.812
1674564083.812,397.949,-8.789,-263.184,-29.785,-142.578
1674564083.816,422.363,-8.789,-323.242,-15.625,-19.043
1674564083.819,-108.887,-12.695,-329.102,-38.086,-10.254
1674564083.823,-850.586,-19.043,-412.598,-82.031,-173.340
1674564083.827,-145.996,-22.949,-377.441,-64.941,-162.109
1674564083.831,393.066,-20.996,-359.375,-42.969,-76.660
1674564083.835,371.094,-11.230,-270.508,-31.738,-75.195
1674564083.839,-75.684,-5.859,-318.848,-42.969,-101.562
1674564083.843,-831.055,-6.836,-537.598,-72.754,14.648
1674564083.846,-274.414,-12.695,-554.688,-50.293,184.570
1674564083.850,376.465,-20.996,-282.715,-33.203,-17.578
1674564083.854,456.543,-12.207,-164.062,-19.043,-182.129
1674564083.858,142.578,-10.742,-244.629,-13.672,-120.605
1674564083.862,-760.254,-11.719,-399.902,-53.711,-136.230
1674564083.863,-363.281,-3.906,-331.543,-56.641,-179.688
1674564083.867,364.746,-3.906,-293.945,-34.668,-207.520
1674564083.871,479.980,-4.883,-291.016,-19.043,-143.555
1674564083.875,244.141,-9.766,-281.250,-22.949,-99.121
1674564083.879,-687.988,-13.184,-444.336,-57.617,-87.891
1674564083.883,-462.891,-14.648,-402.344,-62.500,-67.871
1674564083.887,310.059,-15.137,-486.328,-23.926,131.836
1674564083.890,485.352,-13.672,-503.418,4.883,301.270
1674564083.894,359.375,-9.766,-247.559,-2.441,37.109
1674564083.898,-574.219,-11.230,-393.066,-43.457,-135.254
1674564083.902,-541.504,-14.648,-439.941,-43.457,-20.996
1674564083.906,288.086,-19.043,-269.531,-22.949,-12.207
1674564083.908,496.094,-27.832,-199.219,-25.391,-159.668
1674564083.912,418.945,-24.414,-217.285,-12.207,-134.277
1674564083.916,-467.773,-24.902,-379.395,-45.898,-131.836
1674564083.920,-635.254,-27.344,-361.816,-70.801,-203.613
1674564083.924,198.730,-20.996,-265.137,-43.945,-178.711
1674564083.928,437.988,-11.719,-368.652,-21.484,2.930
1674564083.932,433.105,-1.465,-423.340,8.301,252.930
1674564083.935,-364.746,0.000,-398.926,-27.832,102.051
1674564083.939,-725.098,-9.766,-350.098,-73.730,-172.363
1674564083.943,127.441,-20.508,-397.461,-41.016,-27.344
1674564083.947,407.227,-17.090,-446.289,-24.414,112.305
1674564083.951,461.426,-8.789,-88.867,-23.438,-30.273
1674564083.971,-231.445,-15.137,-146.973,-43.457,-62.988
1674564083.975,-819.336,-10.742,-410.645,-71.289,-33.203
1674564083.979,34.180,-3.418,-281.738,-43.945,3.418
1674564083.983,409.668,-4.883,-223.145,-26.367,-83.496
1674564083.987,442.383,-5.859,-235.352,-5.371,-119.629
1674564083.991,-112.793,-6.348,-357.910,-14.648,20.996
1674564083.995,-874.023,-18.066,-466.797,-62.012,49.805
1674564083.998,-116.699,-17.090,-346.191,-40.039,-58.594
1674564084.002,402.344,-9.277,-267.090,-17.578,-78.613
1674564084.006,420.898,-12.695,-444.824,1.953,181.152
1674564084.010,-8.789,-14.648,-548.828,3.418,315.918
1674564084.014,-830.078,-16.602,-438.965,-41.016,-66.406
1674564084.016,-215.820,-11.230,-380.371,-22.949,-188.477
1674564084.020,396.484,8.301,-347.656,-23.926,-32.715
1674564084.024,429.199,3.418,-237.305,-25.391,-78.125
1674564084.028,129.883,-3.906,-217.285,-16.113,-160.156
1674564084.032,-534.180,3.418,-415.527,-55.176,-166.992
1674564084.036,-473.145,0.000,-494.141,-60.059,-77.148
1674564084.040,89.844,-0.977,-375.488,-52.734,-65.918
1674564084.043,490.723,-1.953,-188.477,-36.621,-142.090
1674564084.047,241.699,1.465,-307.129,-7.812,56.641
1674564084.051,-538.086,-6.348,-560.547,-33.203,310.547
1674564084.055,-435.547,-22.461,-349.609,-53.711,43.945
1674564084.059,227.539,-16.113,-290.527,-32.227,-123.535
1674564084.060,491.211,-7.324,-284.668,-3.418,-7.812
1674564084.064,320.312,-4.395,-285.156,2.930,20.996
1674564084.068,-577.148,-15.137,-413.574,-44.434,-1.953
1674564084.072,-555.176,-11.719,-388.672,-55.176,-104.004
1674564084.076,215.332,-5.859,-414.551,-23.926,-1.465
1674564084.080,452.148,-16.602,-375.977,-8.789,156.250
1674564084.084,417.969,-11.230,-279.297,2.930,58.105
1674564084.087,-406.250,-12.695,-332.520,-37.598,-83.008
1674564084.091,-585.938,-16.113,-574.219,-37.109,179.688
1674564084.095,185.059,-5.371,-556.641,1.465,440.430
1674564084.099,434.082,-13.672,-258.301,-21.973,47.852
1674564084.103,429.199,-21.973,-264.160,-12.695,-164.062
1674564084.105,-356.934,-29.297,-386.719,-34.668,-129.395
1674564084.109,-715.820,-29.297,-399.414,-66.895,-222.168
1674564084.113,127.930,-15.625,-281.250,-38.086,-198.730
1674564084.117,431.641,-18.066,-297.852,-19.531,-65.918
1674564084.121,461.914,-20.508,-342.285,-4.883,-82.520
1674564084.125,-180.664,-16.602,-371.582,-24.902,-103.516
1674564084.129,-783.203,-13.672,-455.078,-62.988,-62.500
1674564084.132,-39.062,-8.789,-468.262,-40.527,-7.324
1674564084.136,400.879,-7.812,-616.699,-7.812,276.855
1674564084.140,459.961,-15.137,-343.750,-15.137,215.332
1674564084.144,-83.496,-22.461,-209.961,-42.480,-101.562
1674564084.148,-835.938,-22.949,-443.359,-73.242,-77.637
1674564084.150,-118.164,-25.879,-303.711,-58.105,-48.828
1674564084.154,385.254,-26.855,-207.031,-27.832,-84.473
1674564084.158,421.875,-15.137,-113.281,-4.395,-50.293
1674564084.162,-23.926,-6.836,-208.496,-6.836,-48.828
1674564084.166,-821.777,-20.020,-416.016,-45.898,-110.352
1674564084.170,-250.977,-27.832,-418.945,-39.062,-118.164
1674564084.174,300.293,-11.719,-292.480,-26.855,-48.340
1674564084.177,373.047,-9.277,-393.555,9.277,277.344
1674564084.181,49.805,-20.508,-471.191,21.973,393.066
1674564084.185,-834.961,-23.438,-417.969,-38.574,51.758
1674564084.189,-448.730,-32.227,-355.469,-39.062,-30.273
1674564084.193,237.305,-31.738,-439.941,10.742,204.590
1674564084.195,391.602,-22.461,-330.078,37.598,249.512
1674564084.199,162.598,-25.391,51.758,9.766,3.418
1674564084.203,-694.336,-22.949,-243.164,-31.738,-22.461
1674564084.207,-501.953,-18.555,-399.902,-31.738,-18.555
1674564084.211,223.145,-13.184,-254.395,-11.719,-37.109
1674564084.215,442.871,-12.695,-228.027,11.719,14.160
1674564084.219,282.227,-17.090,-329.590,26.855,234.375
1674564084.222,-580.078,-17.090,-497.559,8.789,424.805
1674564084.226,-551.270,-27.832,-323.730,-37.598,160.156
1674564084.230,238.770,-35.156,-183.594,-55.176,-41.504
1674564084.234,455.566,-29.297,-172.363,-18.555,65.430
1674564084.238,375.977,-19.043,-236.328,-2.930,21.484
1674564084.239,-477.051,-16.113,-334.473,-47.363,-75.684
1674564084.243,-629.883,-20.996,-310.059,-73.242,-151.367
1674564084.247,183.594,-27.344,-378.418,-42.480,-64.941
1674564084.251,471.680,-37.598,-307.617,-21.484,41.504
1674564084.255,458.008,-32.227,-58.105,-20.020,-34.180
1674564084.259,-366.699,-20.020,-242.188,-53.711,-48.828
1674564084.263,-695.801,-17.090,-571.289,-59.082,152.832
1674564084.266,138.184,-17.090,-479.980,-27.344,184.570
1674564084.270,445.312,-17.578,-268.555,-29.785,-85.938
1674564084.274,484.863,-13.672,-285.156,-17.090,-189.941
1674564084.278,-191.895,-21.973,-350.586,-35.156,-10.742
1674564084.282,-791.016,-38.086,-354.492,-73.730,14.160
1674564084.284,-11.719,-32.715,-254.395,-65.430,-192.871
1674564084.288,393.066,-22.949,-277.832,-37.109,-160.645
1674564084.292,443.848,-20.020,-234.863,-13.672,-72.754
1674564084.296,-75.195,-11.230,-225.586,-33.203,-16.113
1674564084.300,-806.641,-15.625,-371.582,-72.266,-73.242
1674564084.304,-153.320,-20.996,-404.297,-45.410,-72.266
1674564084.308,336.426,-19.531,-547.852,-3.906,335.938
1674564084.311,375.977,-25.879,-393.555,-8.301,316.895
1674564084.315,36.621,-37.109,-150.391,-37.598,-109.863
1674564084.319,-654.297,-36.133,-373.535,-70.312,-108.887
1674564084.323,-362.305,-28.320,-383.789,-74.219,-59.082
1674564084.327,224.609,-21.973,-256.348,-47.363,-130.859
1674564084.345,472.168,-20.996,-236.328,-18.555,-168.945
1674564084.349,147.949,-21.484,-256.348,-16.602,-44.434
1674564084.353,-733.398,-27.344,-368.652,-61.523,-46.387
1674564084.357,-381.348,-35.645,-335.938,-67.871,-158.203
1674564084.361,313.965,-32.227,-306.641,-40.039,-149.902
1674564084.365,400.391,-30.762,-379.883,-22.949,6.348
1674564084.369,188.477,-34.180,-352.051,-22.461,-6.348
1674564084.372,-611.816,-31.738,-427.246,-57.129,-103.516
1674564084.376,-480.469,-32.227,-411.133,-68.359,-126.953
1674564084.380,212.402,-29.785,-493.164,-36.133,66.406
1674564084.384,401.855,-20.508,-549.805,-1.465,351.562
1674564084.388,291.016,-20.508,-261.719,-8.789,33.203
1674564084.390,-393.066,-24.902,-300.781,-52.246,-187.500
1674564084.394,-479.492,-32.715,-386.719,-65.918,-110.840
1674564084.398,94.238,-43.945,-292.969,-48.340,-187.500
1674564084.402,367.676,-43.457,-249.023,-28.809,-196.777
1674564084.406,342.773,-28.320,-297.852,-20.020,-70.312
1674564084.410,-264.160,-21.973,-426.758,-46.387,10.254
1674564084.414,-505.859,-16.602,-411.621,-64.941,-73.730
1674564084.417,46.875,-22.949,-279.785,-47.852,-197.266
1674564084.421,328.125,-27.832,-402.344,-39.062,-109.863
1674564084.425,346.191,-16.602,-530.273,-23.438,217.773
1674564084.429,-208.008,-16.602,-348.633,-37.598,109.375
1674564084.433,-568.359,-19.531,-334.961,-75.195,-194.824
1674564084.435,44.434,-19.043,-429.688,-45.898,-51.270
1674564084.439,319.336,-27.832,-398.438,-21.484,43.945
1674564084.443,371.094,-33.203,-198.730,-22.949,-55.664
1674564084.447,-160.645,-27.832,-289.551,-27.832,-123.047
1674564084.451,-705.566,-20.996,-453.125,-54.199,-160.645
1674564084.455,-69.336,-32.715,-404.297,-41.016,-48.828
1674564084.459,291.992,-34.180,-370.117,-19.043,25.391
1674564084.462,366.699,-20.020,-258.301,-7.324,-41.992
1674564084.466,-88.379,-18.555,-451.172,-7.812,189.453
1674564084.470,-780.273,-22.461,-641.113,-45.410,398.926
1674564084.474,-144.043,-25.391,-333.984,-57.129,-19.531
1674564084.478,332.520,-20.020,-279.785,-30.762,-172.852
1674564084.497,369.629,-22.949,-304.199,-14.160,-44.922
1674564084.501,28.809,-29.785,-296.875,-25.391,-27.344
1674564084.505,-721.191,-22.461,-349.609,-64.453,-99.609
1674564084.509,-267.090,-18.066,-385.254,-57.129,-78.125
1674564084.513,300.781,-18.555,-415.527,-27.344,73.242
1674564084.517,395.996,-19.043,-345.215,-16.113,128.906
1674564084.521,137.207,-25.391,-281.250,-25.879,52.246
1674564084.524,-617.676,-31.250,-501.465,-64.941,13.672
1674564084.528,-376.953,-28.320,-580.566,-55.176,188.477
1674564084.532,237.793,-23.438,-286.133,-40.527,40.039
1674564084.536,413.574,-23.438,-256.348,-29.785,-192.383
1674564084.540,253.906,-25.391,-296.875,1.465,-83.496
1674564084.525,-466.309,-38.086,-335.938,-37.109,-18.555
1674564084.529,-389.160,-33.691,-327.637,-66.895,-98.633
1674564084.533,202.148,-13.184,-298.828,-41.504,-102.051
1674564084.537,367.676,-18.066,-325.684,-26.855,-55.664
1674564084.541,274.902,-27.832,-320.312,-10.742,-12.207
1674564084.545,-381.836,-24.902,-379.395,-42.969,-22.949
1674564084.549,-444.824,-22.949,-431.152,-69.336,-52.734
1674564084.552,169.434,-29.297,-400.391,-53.711,14.648
1674564084.556,444.824,-31.250,-347.168,-33.691,14.648
1674564084.560,401.367,-32.715,-295.898,-11.230,-39.551
1674564084.564,-381.348,-35.645,-321.289,-44.922,-145.996
1674564084.568,-590.820,-38.086,-574.707,-56.641,32.715
1674564084.570,104.004,-42.480,-645.020,-22.461,396.973
1674564084.574,373.535,-38.086,-352.539,-28.320,136.719
1674564084.578,391.113,-28.320,-265.625,-27.344,-141.602
1674564084.582,-297.852,-32.227,-375.488,-48.340,-62.988
1674564084.586,-685.059,-40.527,-403.809,-73.730,-104.004
1674564084.590,-13.672,-40.039,-398.926,-42.480,-144.043
1674564084.594,312.500,-34.180,-444.824,-18.066,-8.301
1674564084.597,345.703,-36.133,-495.605,0.000,248.047
1674564084.601,-119.141,-33.203,-325.684,-20.508,143.555
1674564084.605,-602.539,-23.926,-299.316,-67.383,-168.945
1674564084.609,-105.957,-26.855,-460.938,-49.805,-150.391
1674564084.613,182.617,-26.367,-483.887,-28.809,-25.879
1674564084.615,235.352,-28.320,-241.699,-15.137,-65.430
1674564084.619,-79.102,-30.762,-271.973,-16.602,-98.633
1674564084.623,-627.441,-26.367,-420.410,-57.617,-61.523
1674564084.627,-197.754,-34.668,-324.707,-60.059,-4.883
1674564084.631,184.570,-36.621,-297.363,-49.316,37.598
1674564084.635,161.621,-21.973,-352.051,-33.203,31.738
1674564084.639,-0.977,-24.414,-459.473,0.000,267.578
1674564084.642,-252.441,-28.809,-501.465,-14.648,321.777
1674564084.646,1.465,-18.066,-354.980,-37.598,-18.555
1674564084.650,145.508,-2.441,-371.582,-22.461,-134.766
1674564084.654,10.742,-6.836,-417.480,-15.625,60.547
1674564084.658,-141.602,-26.367,-376.953,-22.949,119.141
1674564084.662,-210.938,-36.621,-257.324,-36.133,-108.398
1674564084.666,77.637,-38.086,-279.297,-40.527,-61.523
1674564084.670,194.824,-26.855,-343.262,-33.691,81.543
1674564084.674,3.418,-22.461,-298.340,-38.574,36.621
1674564084.678,-182.617,-17.578,-291.992,-40.039,-82.520
1674564084.682,-243.652,-19.531,-435.059,-31.738,-25.879
1674564084.686,40.527,-35.156,-464.844,-30.273,195.801
1674564084.689,229.004,-38.574,-287.109,-41.504,62.500
1674564084.693,57.129,-29.297,-263.184,-41.992,-134.277
1674564084.697,-174.805,-22.949,-395.508,-30.273,-11.719
1674564084.701,-261.719,-24.902,-410.645,-37.598,-11.719
1674564084.705,11.230,-18.555,-257.812,-45.898,-163.086
1674564084.720,199.219,-2.441,-281.250,-33.691,-143.555
1674564084.724,30.762,5.371,-355.957,-27.344,-32.715
1674564084.728,-157.715,1.953,-390.625,-36.621,-1.465
1674564084.732,-240.723,-17.578,-334.473,-40.039,-37.109
1674564084.736,-8.789,-25.391,-279.297,-36.621,-166.504
1674564084.740,209.961,-6.836,-503.418,-18.066,66.406
1674564084.744,83.008,-0.488,-537.109,-18.555,268.066
1674564084.747,-98.633,-0.977,-361.328,-41.016,-96.680
1674564084.751,-237.305,-2.441,-367.676,-39.551,-216.309
1674564084.755,-67.383,-0.977,-495.605,-18.555,104.004
1674564084.759,196.777,-0.488,-472.656,-34.180,140.625
1674564084.763,115.723,-7.812,-282.227,-58.105,-235.840
1674564084.765,-95.703,-13.184,-371.582,-36.621,-249.023
1674564084.769,-270.020,-7.324,-382.812,-38.574,-172.363
1674564084.773,-126.465,-7.812,-312.988,-36.621,-230.957
1674564084.777,185.059,-17.578,-282.227,-41.992,-268.066
1674564084.781,138.184,-16.602,-366.699,-41.016,-172.852
1674564084.785,-67.871,-16.113,-452.148,-28.809,9.277
1674564084.789,-226.562,-11.719,-401.855,-27.832,-4.883
1674564084.792,-146.973,-8.301,-348.145,-37.598,-16.113
1674564084.796,179.688,-12.695,-397.461,-37.598,61.035
1674564084.800,168.457,-8.301,-622.559,-11.230,300.293
1674564084.804,-40.039,-8.301,-460.938,-22.461,208.496
1674564084.808,-206.543,-13.184,-271.484,-41.016,-143.555
1674564084.810,-184.082,-7.324,-312.988,-28.320,-97.168
1674564084.814,144.531,-14.160,-260.254,-26.367,-49.316
1674564084.818,198.242,-14.160,-267.578,-34.668,-116.211
1674564084.822,-6.348,0.488,-336.914,-22.949,-129.883
1674564084.826,-179.199,-1.953,-380.859,-1.953,-48.340
1674564084.830,-195.312,-12.207,-374.023,-15.137,33.691
1674564084.834,145.996,0.000,-331.055,-18.555,29.297
1674564084.837,248.535,-0.488,-292.480,-20.996,-106.445
1674564084.841,5.371,-8.301,-513.184,-12.207,97.656
1674564084.845,-188.965,-4.395,-646.484,1.953,415.527
1674564084.849,-218.262,-0.488,-359.375,-22.461,38.574
1674564084.853,83.496,0.977,-276.855,-23.438,-228.027
1674564084.855,231.445,-5.859,-339.355,-10.742,-145.508
1674564084.859,55.176,-6.836,-287.109,-18.066,-144.043
1674564084.863,-146.973,6.348,-286.621,-15.137,-186.035
1674564084.867,-230.957,6.348,-318.848,-0.977,-156.250
1674564084.871,44.434,-7.324,-354.980,-2.441,-65.918
1674564084.875,242.188,-8.301,-368.652,-14.160,0.488
1674564084.879,82.031,0.488,-344.727,-12.207,-16.602
1674564084.882,-115.234,3.906,-433.594,5.371,32.715
1674564084.886,-234.375,2.930,-495.117,18.066,238.770
1674564084.890,7.812,-0.488,-283.691,0.488,-7.812
1674564084.894,249.512,-0.488,-262.207,-10.742,-249.512
1674564084.898,107.910,1.953,-337.402,-5.371,-171.875
1674564084.901,-107.910,-4.395,-379.395,-7.324,-120.117
1674564084.905,-241.699,-2.930,-308.105,-19.531,-105.469
1674564084.909,-33.691,-5.371,-251.465,-21.484,-128.418
1674564084.913,236.328,-9.277,-375.488,-15.625,-48.828
1674564084.917,125.000,-11.230,-413.574,-20.508,-41.504
1674564084.921,-76.172,-16.113,-389.648,-24.902,-18.555
1674564084.925,-219.238,-12.207,-344.727,-22.949,-49.805
1674564084.928,-88.867,-13.672,-467.285,-11.719,29.297
1674564084.932,220.215,-20.508,-518.066,-12.207,228.027
1674564084.936,168.457,-14.648,-309.570,-34.668,-26.855
1674564084.940,-46.875,-4.883,-325.684,-29.297,-170.898
1674564084.944,-225.098,-7.812,-395.020,-14.160,1.953
1674564084.944,-152.344,-9.766,-291.992,-19.531,-50.293
1674564084.948,182.617,-4.395,-229.980,-24.414,-199.707
1674564084.952,161.133,-4.883,-333.984,-19.531,-153.320
1674564084.956,-66.406,-13.672,-417.480,-20.508,-77.148
1674564084.960,-227.539,-18.066,-379.883,-20.996,-30.762
1674564084.964,-178.711,-19.531,-356.445,-12.695,-27.344
1674564084.968,153.809,-15.625,-372.559,-19.043,20.020
1674564084.971,191.895,-6.836,-588.867,-15.137,268.555
1674564084.975,-8.301,-12.695,-507.324,-9.766,228.516
1674564084.979,-174.805,-4.883,-271.484,-26.855,-151.367
1674564084.983,-189.941,3.418,-345.703,-31.738,-138.184
1674564084.987,132.324,-0.977,-357.910,-26.855,-90.332
1674564084.989,231.445,3.418,-280.762,-29.785,-180.664
1674564084.993,28.809,3.906,-300.781,-19.043,-94.727
1674564084.997,-176.270,-1.465,-330.566,-14.648,44.922
1674564085.001,-216.309,-9.766,-284.668,-15.625,-25.879
1674564085.005,71.777,-24.902,-285.645,-18.066,-111.816
1674564085.009,204.590,-29.785,-339.844,-27.832,-29.297
1674564085.013,31.250,-11.230,-523.926,-9.277,213.867
1674564085.016,-179.688,-2.930,-544.434,-15.625,288.574
1674564085.020,-256.348,-13.672,-365.723,-56.152,20.996
1674564085.024,23.438,-21.484,-317.871,-58.105,-110.840
1674564085.028,221.680,-19.531,-460.449,-35.645,154.297
1674564085.032,77.148,-21.484,-514.648,-37.598,275.879
1674564085.036,-125.488,-19.531,-281.738,-52.246,-61.523
1674564085.040,-248.535,-12.207,-303.711,-45.898,-74.219
1674564085.044,-34.668,-20.508,-318.359,-51.270,-9.277
1674564085.048,187.500,-22.949,-255.859,-57.129,-81.055
1674564085.052,76.660,-18.066,-296.875,-43.945,-124.023
1674564085.056,-126.953,-16.602,-457.031,-27.344,-6.836
1674564085.060,-248.535,-23.926,-491.211,-18.555,270.020
1674564085.063,-32.715,-34.668,-311.523,-36.621,109.375
1674564085.067,258.789,-25.391,-235.352,-48.828,-134.766
1674564085.071,187.988,-18.066,-378.418,-34.668,-17.090
1674564085.075,-0.488,-20.020,-469.727,-27.344,67.383
1674564085.079,-151.855,-18.555,-295.410,-37.598,-11.719
1674564085.080,-20.996,-19.043,-236.816,-46.875,-131.836
1674564085.084,261.719,-19.531,-389.160,-35.156,-49.805
1674564085.088,163.574,-21.973,-414.062,-34.180,73.242
1674564085.092,-76.172,-20.508,-290.527,-44.434,-60.059
1674564085.096,-270.996,-19.531,-314.453,-41.504,-128.906
1674564085.100,-207.031,-22.461,-389.160,-41.016,-5.371
1674564085.104,103.027,-22.461,-364.746,-37.109,31.738
1674564085.107,80.078,-22.461,-303.223,-32.227,-53.711
1674564085.111,-128.418,-24.414,-322.754,-30.762,-78.613
1674564085.115,-310.059,-26.367,-488.770,-8.789,174.805
1674564085.119,-274.414,-36.133,-490.234,10.742,416.016
1674564085.123,76.660,-31.250,-184.082,-11.230,118.164
1674564085.140,115.234,-14.648,-223.633,-24.902,-70.801
1674564085.144,-111.328,-12.695,-383.789,-25.391,-27.832
1674564085.148,-293.945,-21.484,-319.336,-29.785,-11.719
1674564085.152,-281.738,-26.855,-175.293,-38.086,-73.730
1674564085.156,48.828,-17.090,-246.094,-23.438,-52.734
1674564085.160,140.625,-10.742,-412.598,-7.324,270.508
1674564085.164,-54.199,-25.879,-334.961,-22.461,184.570
1674564085.167,-216.797,-29.785,-205.078,-35.156,-156.738
1674564085.171,-236.816,-19.531,-349.609,-24.902,-101.562
1674564085.175,62.012,-17.090,-416.016,-15.137,41.992
1674564085.179,216.797,-23.438,-167.969,-31.250,-65.918
1674564085.183,38.086,-20.996,-215.820,-38.086,-153.809
1674564085.185,-170.410,-12.695,-283.203,-28.320,-134.766
1674564085.189,-228.516,-12.207,-236.328,-33.691,-119.629
1674564085.193,49.805,-7.324,-138.184,-43.457,-161.133
1674564085.197,222.656,-15.137,-91.797,-46.387,-155.273
1674564085.201,59.570,-21.973,-274.414,-47.363,-104.492
1674564085.205,-157.715,-15.625,-385.254,-39.551,-73.730
1674564085.209,-228.516,-16.602,-320.801,-37.109,-115.723
1674564085.212,17.578,-15.625,-275.391,-31.738,-122.559
1674564085.216,213.379,-14.648,-412.598,-18.555,105.469
1674564085.220,75.684,-17.578,-629.395,-7.324,389.160
1674564085.224,-132.812,-16.602,-409.668,-24.902,117.676
1674564085.228,-242.676,-20.020,-218.262,-44.922,-200.684
1674564085.230,-54.688,-26.367,-239.746,-39.062,-161.133
1674564085.234,212.402,-25.391,-154.297,-32.715,-210.449
1674564085.238,137.207,-20.020,-174.316,-24.414,-225.098
1674564085.242,-100.586,-23.438,-285.156,-30.273,-142.578
1674564085.246,-268.066,-16.602,-311.523,-37.598,-72.266
1674564085.250,-126.465,-7.812,-281.738,-40.527,-5.371
1674564085.254,178.711,-7.324,-265.137,-35.156,9.277
1674564085.257,115.234,-9.766,-331.055,-34.668,-50.293
1674564085.261,-106.445,-17.578,-572.754,-21.973,326.172
1674564085.265,-244.141,-28.809,-419.434,-26.367,286.621
1674564085.269,-133.789,-38.574,-146.484,-42.480,-166.016
1674564085.273,190.430,-31.738,-202.637,-26.855,-111.328
1674564085.275,167.969,-21.973,-271.484,-23.438,-125.488
1674564085.279,-58.105,-25.879,-258.789,-29.785,-213.867
1674564085.283,-225.586,-27.344,-255.859,-34.180,-164.062
1674564085.287,-178.711,-19.531,-250.000,-34.180,-63.477
1674564085.291,141.602,-14.160,-243.652,-36.621,-74.707
1674564085.295,170.898,-20.508,-331.543,-37.109,-1.465
1674564085.299,-44.434,-19.531,-322.266,-30.762,-12.695
1674564085.302,-236.328,-7.324,-449.219,-10.254,86.914
1674564085.306,-240.234,-9.277,-477.539,-11.230,325.195
1674564085.310,99.121,-19.531,-189.941,-38.574,61.523
1674564085.314,199.707,-19.531,-112.305,-42.480,-130.859
1674564085.318,-20.508,-21.973,-388.184,-23.438,162.598
1674564085.319,-199.707,-23.926,-376.465,-20.508,253.906
1674564085.323,-203.613,-13.672,-139.160,-28.809,-86.914
1674564085.327,104.980,-10.742,-230.957,-17.090,-126.953
1674564085.331,260.254,-6.836,-286.133,-16.602,-23.926
1674564085.335,84.473,-11.230,-275.879,-29.785,-56.641
1674564085.339,-122.559,-21.484,-323.730,-32.227,-92.773
1674564085.343,-187.500,-15.137,-370.117,-23.926,46.875
1674564085.346,72.266,-17.090,-405.762,-12.695,275.879
1674564085.350,239.258,-25.391,-231.445,-36.621,84.473
1674564085.354,69.824,-24.414,-213.379,-51.758,-178.223
1674564085.358,-163.574,-26.855,-305.176,-42.480,-122.559
1674564085.362,-261.719,-24.414,-292.480,-43.457,-118.164
1674564085.364,9.277,-19.531,-214.844,-46.875,-199.219
1674564085.368,233.398,-14.160,-220.703,-51.270,-219.727
1674564085.372,65.918,-8.301,-338.867,-41.992,-73.242
1674564085.376,-147.461,-13.672,-334.473,-41.992,-9.766
1674564085.380,-246.094,-22.949,-273.438,-42.480,-126.465
1674564085.384,-50.293,-29.297,-299.316,-37.598,-104.980
1674564085.388,174.316,-30.762,-444.336,-30.273,99.609
1674564085.391,67.871,-29.785,-535.156,-20.508,250.977
1674564085.395,-134.277,-35.645,-347.168,-41.016,48.340
1674564085.399,-244.629,-39.551,-295.410,-47.852,-64.453
1674564085.403,-108.398,-41.016,-347.168,-32.715,60.547
1674564085.407,151.855,-40.039,-236.816,-42.480,74.707
1674564085.409,148.438,-34.180,-140.137,-52.734,-121.582
1674564085.413,-72.266,-30.273,-282.227,-40.039,-129.883
1674564085.417,-237.305,-27.832,-300.293,-35.645,-54.688
1674564085.421,-146.973,-30.762,-83.984,-43.945,-33.691
1674564085.425,157.715,-24.902,-13.184,-41.992,-129.883
1674564085.429,154.297,-12.695,-274.902,-33.203,18.555
1674564085.433,-69.336,-13.672,-430.664,-27.832,324.219
1674564085.436,-216.797,-19.043,-308.105,-31.738,217.773
1674564085.440,-154.785,-26.367,-146.484,-43.457,-56.641
1674564085.444,162.109,-26.855,-277.832,-37.109,-59.570
1674564085.448,199.219,-21.484,-471.191,-26.367,70.312
1674564085.452,7.324,-32.715,-269.043,-29.297,-152.832
1674564085.453,-162.598,-32.227,-246.094,-24.414,-270.996
1674564085.457,-188.965,-16.113,-271.484,-50.293,-181.152
1674564085.461,101.074,-10.742,-206.543,-61.523,-157.227
1674564085.465,209.473,-12.207,-223.145,-54.688,-239.258
1674564085.469,-11.230,-15.625,-324.219,-65.430,-282.227
1674564085.473,-212.402,-15.137,-409.180,-40.527,9.766
1674564085.477,-226.074,-12.207,-326.172,-31.738,146.484
1674564085.480,76.172,-22.949,-238.281,-46.387,-84.961
1674564085.484,211.426,-25.879,-279.297,-40.527,-191.406
1674564085.488,17.578,-20.508,-504.395,-23.926,76.172
1674564085.492,-185.547,-29.785,-536.133,-21.484,295.898
1674564085.496,-222.656,-35.156,-216.797,-45.410,-66.406
1674564085.513,62.012,-24.902,-221.191,-44.434,-210.449
1674564085.517,239.746,-14.160,-289.062,-31.250,-148.438
1674564085.521,80.566,-10.254,-291.016,-31.250,-189.941
1674564085.525,-135.742,-16.113,-284.180,-37.598,-277.832
1674564085.529,-222.656,-15.625,-310.059,-31.738,-167.969
1674564085.533,-19.531,-13.184,-375.000,-25.391,18.555
1674564085.537,211.426,-19.531,-309.082,-34.180,-44.922
1674564085.540,115.723,-15.137,-209.961,-40.039,-103.516
1674564085.544,-112.305,-12.695,-392.578,-28.809,-62.500
1674564085.548,-266.113,-28.320,-508.301,-27.344,69.336
1674564085.552,-68.848,-34.668,-250.977,-53.711,-97.656
1674564085.556,208.984,-33.203,-228.516,-61.035,-183.105
1674564085.562,125.488,-39.062,-323.242,-43.457,-73.242
1674564085.566,-90.332,-36.133,-339.844,-30.273,-85.938
1674564085.570,-244.141,-21.973,-260.254,-25.391,-123.047
1674564085.574,-104.980,-17.578,-234.863,-29.785,-133.789
1674564085.578,166.016,-23.926,-372.559,-32.715,15.137
1674564085.582,104.492,-27.832,-408.203,-30.762,59.570
1674564085.586,-98.633,-25.391,-316.406,-40.039,-10.254
1674564085.589,-263.672,-24.902,-270.996,-43.945,9.766
1674564085.593,-181.641,-31.738,-448.730,-29.785,187.500
1674564085.597,141.113,-30.273,-509.277,-20.508,404.297
1674564085.601,132.812,-30.762,-238.770,-49.805,31.250
1674564085.605,-88.867,-31.250,-283.691,-52.734,-145.020
1674564085.604,-254.395,-27.832,-308.594,-47.852,-18.555
1674564085.608,-206.055,-25.391,-239.746,-54.199,-105.957
1674564085.612,104.004,-36.133,-227.051,-58.105,-153.809
1674564085.616,157.227,-37.109,-298.340,-54.688,-42.480
1674564085.620,-55.664,-17.578,-401.855,-44.434,-6.348
1674564085.624,-242.188,-17.090,-388.184,-47.852,-18.066
1674564085.628,-225.586,-28.809,-314.453,-41.016,1.465
1674564085.631,83.008,-39.062,-347.168,-36.621,8.301
1674564085.635,161.621,-27.344,-611.328,-40.039,236.816
1674564085.639,-38.086,-21.484,-478.516,-68.359,156.738
1674564085.643,-214.355,-27.344,-251.465,-74.219,-185.547
1674564085.647,-256.348,-21.484,-314.941,-60.059,-153.809
1674564085.649,37.109,-20.020,-284.668,-71.777,-135.742
1674564085.653,188.965,-18.555,-250.977,-69.824,-150.391
1674564085.657,6.836,-12.207,-322.754,-59.082,-200.195
1674564085.661,-192.871,-13.672,-361.816,-47.852,-178.223
1674564085.665,-261.230,-26.855,-312.012,-48.340,-133.789
1674564085.669,9.277,-28.809,-340.820,-49.805,-82.520
1674564085.673,188.965,-29.297,-377.441,-49.805,-68.848
1674564085.676,27.832,-31.738,-432.129,-44.434,46.387
1674564085.680,-166.992,-22.461,-420.410,-35.645,67.871
1674564085.684,-259.277,-31.250,-337.891,-45.410,-149.902
1674564085.688,-2.441,-36.133,-252.441,-53.223,-271.484
1674564085.692,197.266,-25.879,-476.074,-30.273,-3.418
1674564085.693,111.816,-27.832,-571.289,-11.230,318.359
1674564085.697,103.516,-31.738,-261.719,-29.297,-11.719
1674564085.701,-245.605,-14.648,-314.941,-47.852,-239.258
1674564085.705,-452.148,-8.301,-396.973,-62.988,-221.191
1674564085.709,-41.016,-23.926,-354.004,-54.688,-229.492
1674564085.713,179.688,-31.738,-361.816,-45.898,-205.566
1674564085.717,222.656,-26.855,-393.066,-35.156,-68.359
1674564085.720,-187.988,-23.926,-492.188,-38.574,158.203
1674564085.724,-595.703,-28.809,-376.465,-86.426,-46.875
1674564085.728,-27.344,-29.785,-262.695,-88.867,-263.672
1674564085.732,324.707,-26.367,-371.094,-63.477,-104.492
1674564085.736,426.270,-19.531,-352.539,-41.504,-18.066
1674564085.739,-183.594,-18.555,-261.719,-73.242,-159.668
1674564085.743,-866.699,-26.855,-400.879,-118.164,-256.348
1674564085.747,-125.488,-33.203,-388.184,-84.961,-197.266
1674564085.751,306.641,-36.133,-305.664,-69.336,-161.621
1674564085.755,352.539,-33.203,-269.531,-53.711,-204.102
1674564085.759,-8.301,-27.344,-326.660,-48.828,-200.684
1674564085.763,-777.832,-25.391,-586.426,-84.961,72.266
1674564085.766,-228.027,-22.461,-535.156,-69.336,180.664
1674564085.770,361.816,-23.438,-278.809,-47.852,-104.980
1674564085.774,444.336,-32.715,-298.828,-30.273,-145.020
1674564085.778,35.156,-32.227,-368.164,-36.621,-5.859
1674564085.782,-899.414,-23.926,-424.805,-87.891,-62.988
1674564085.783,-371.094,-20.996,-337.891,-86.426,-259.277
1674564085.787,352.539,-25.879,-308.105,-50.781,-187.012
1674564085.791,506.836,-23.926,-302.246,-27.344,-50.293
1674564085.795,177.734,-18.066,-250.488,-34.180,-108.887
1674564085.799,-837.402,-16.113,-430.664,-87.891,-237.305
1674564085.803,-393.555,-13.672,-495.117,-77.148,-223.633
1674564085.807,417.480,-27.832,-540.527,-31.738,225.586
1674564085.810,551.270,-35.156,-351.562,-30.273,187.988
1674564085.814,308.105,-24.902,-141.113,-44.434,-201.660
1674564085.818,-520.508,-20.020,-403.809,-63.965,-172.852
1674564085.822,-473.145,-13.672,-482.910,-64.453,-200.195
1674564085.826,201.660,-6.836,-341.797,-44.922,-252.930
1674564085.828,615.723,-11.719,-236.816,-16.602,-207.520
1674564085.832,441.895,-12.207,-259.277,-5.371,-125.977
1674564085.836,-613.770,-9.277,-400.391,-60.547,-167.969
1674564085.840,-563.477,-9.766,-366.699,-72.754,-216.309
1674564085.844,346.680,-10.254,-329.590,-34.180,-146.484
1674564085.848,592.285,-8.301,-388.672,-2.930,-79.590
1674564085.852,471.191,-12.695,-330.078,-15.625,-52.246
1674564085.855,-494.141,-17.578,-442.871,-63.477,-98.633
1674564085.859,-699.707,-18.555,-460.449,-79.102,-168.457
1674564085.863,166.992,-19.043,-517.090,-44.434,89.844
1674564085.867,498.535,-21.484,-585.449,-0.488,429.688
1674564085.871,508.789,-27.832,-271.484,-10.254,129.883
1674564085.888,-425.293,-33.691,-341.797,-62.012,-126.953
1674564085.892,-887.695,-33.203,-488.770,-78.125,-152.832
1674564085.896,71.289,-26.855,-312.988,-39.551,-127.930
1674564085.900,394.043,-13.184,-246.582,-19.043,-120.605
1674564085.904,425.293,-3.906,-249.023,-8.301,22.949
1674564085.908,-333.008,-12.695,-451.660,-41.992,119.629
1674564085.912,-998.047,-18.066,-509.766,-82.031,-19.043
1674564085.915,-30.273,-13.672,-310.059,-50.781,-84.473
1674564085.919,446.777,-13.672,-399.414,-22.949,-7.324
1674564085.923,492.188,-15.137,-549.805,12.207,276.367
1674564085.927,-122.070,-18.066,-371.582,-27.344,121.582
1674564085.931,-984.863,-21.973,-395.508,-85.449,-131.348
1674564085.933,-95.215,-27.832,-390.137,-41.992,-69.336
1674564085.937,493.164,-23.438,-300.781,-30.273,-48.828
1674564085.941,518.066,-17.578,-242.676,-29.297,-108.398
1674564085.945,35.156,-12.207,-316.406,-36.621,-165.527
1674564085.949,-958.984,-21.973,-524.414,-79.590,-156.738
1674564085.953,-265.625,-36.133,-502.930,-57.129,-91.797
1674564085.957,489.258,-25.391,-390.625,-23.926,-62.012
1674564085.960,585.449,-18.066,-233.398,-20.996,-125.000
1674564085.964,196.289,-23.926,-443.848,-23.438,125.488
1674564085.968,-867.188,-32.227,-709.473,-64.941,317.383
1674564085.972,-351.074,-40.527,-365.234,-84.961,-75.684
1674564085.976,492.188,-33.691,-285.156,-56.641,-249.512
1674564085.994,599.121,-27.832,-309.570,-20.996,-98.633
1674564085.998,256.836,-34.180,-237.793,-37.598,-130.371
1674564086.002,-848.633,-31.738,-365.723,-103.027,-274.902
1674564086.006,-560.059,-27.344,-399.414,-91.797,-197.266
1674564086.010,317.383,-21.973,-347.656,-55.176,-97.168
1674564086.014,526.855,-24.902,-269.531,-35.645,-105.957
1674564086.018,287.598,-32.715,-238.770,-20.996,-20.508
1674564086.021,-637.695,-30.762,-465.332,-46.875,16.113
1674564086.025,-653.809,-24.414,-544.922,-41.016,164.062
1674564086.029,118.164,-25.879,-275.879,-23.438,93.750
1674564086.033,564.453,-31.250,-147.461,-4.395,-129.395
1674564086.037,391.113,-20.508,-163.574,8.789,-35.156
1674564086.023,-458.496,-15.625,-321.777,-39.551,-7.812
1674564086.027,-775.879,-26.855,-322.754,-74.219,-57.129
1674564086.031,-76.172,-27.344,-299.316,-49.805,-124.023
1674564086.035,488.281,-22.461,-292.969,-20.996,-8.301
1674564086.039,472.656,-18.066,-119.629,-4.883,79.590
1674564086.043,-482.910,-12.695,-296.875,-26.855,2.441
1674564086.047,-865.234,-20.996,-481.934,-47.852,9.277
1674564086.050,144.043,-28.809,-355.957,-30.762,71.289
1674564086.054,465.332,-27.344,-309.082,-34.180,114.746
1674564086.058,481.445,-29.785,-167.969,-12.695,45.898
1674564086.062,-324.219,-40.039,-160.645,-40.039,-26.855
1674564086.066,-1000.000,-36.133,-534.180,-72.754,233.398
1674564086.068,-38.574,-35.156,-552.246,-28.320,500.977
1674564086.072,487.305,-37.109,-189.941,-28.320,119.141
1674564086.076,464.355,-32.715,-30.762,-25.391,-85.449
1674564086.080,-116.699,-31.738,-197.754,-44.434,-78.613
1674564086.084,-933.105,-30.273,-364.746,-90.820,-119.141
1674564086.088,-363.281,-29.785,-356.934,-73.242,-76.172
1674564086.092,406.250,-31.250,-323.730,-39.062,-43.457
1674564086.095,549.805,-27.832,-458.008,-2.441,258.301
1674564086.099,-61.523,-36.621,-421.875,-40.039,162.109
1674564086.103,-1000.000,-46.875,-328.613,-119.629,-319.336
1674564086.107,-277.832,-42.480,-364.746,-81.543,-268.066
1674564086.111,439.453,-37.598,-207.520,-56.152,-146.973
1674564086.114,486.328,-39.551,54.688,-56.641,-206.543
1674564086.118,80.566,-42.969,23.438,-56.152,-192.383
1674564086.122,-991.699,-39.551,-304.199,-107.422,-151.855
1674564086.126,-453.125,-33.691,-305.176,-111.328,-207.031
1674564086.130,406.738,-33.691,-156.250,-77.148,-220.215
1674564086.134,565.430,-34.180,-170.898,-57.129,-187.012
1674564086.138,199.219,-30.273,-382.812,-45.898,67.871
1674564086.141,-933.105,-40.039,-547.852,-102.539,100.098
1674564086.145,-510.742,-45.410,-349.121,-118.164,-204.102
1674564086.149,409.668,-38.086,-253.418,-80.078,-247.070
1674564086.153,583.496,-41.504,-372.559,-44.922,14.648
1674564086.157,320.801,-40.527,-330.566,-35.645,47.852
1674564086.159,-814.453,-43.457,-247.070,-107.910,-300.781
1674564086.163,-614.258,-50.293,-345.215,-103.027,-372.070
1674564086.167,355.957,-52.734,-294.922,-64.941,-319.824
1674564086.171,618.652,-52.734,-59.082,-45.410,-273.926
1674564086.175,454.102,-40.039,54.688,-29.785,-281.250
1674564086.179,-619.141,-34.180,-339.355,-74.707,-123.535
1674564086.183,-719.238,-36.133,-500.000,-81.543,94.727
1674564086.186,198.730,-40.527,-204.102,-50.781,-64.453
1674564086.190,540.527,-41.016,42.969,-41.016,-213.379
1674564086.194,488.281,-33.203,-42.969,-20.020,-125.977
1674564086.198,-521.973,-31.738,-371.094,-49.805,-89.844
1674564086.202,-838.379,-46.875,-355.957,-77.148,-292.480
1674564086.219,199.707,-50.781,-210.449,-34.180,-333.984
1674564086.223,518.555,-26.855,-266.113,-13.672,-154.785
1674564086.227,552.734,-13.672,-110.352,-9.277,-140.137
1674564086.231,-349.609,-20.996,-152.344,-54.199,-254.883
1674564086.235,-922.852,-27.344,-400.391,-95.703,-349.121
1674564086.239,156.738,-27.832,-436.035,-47.363,20.508
1674564086.243,518.555,-32.715,-463.379,-27.344,219.727
1674564086.246,521.973,-35.645,-140.625,-35.156,-189.941
1674564086.250,-177.734,-33.203,-196.289,-59.082,-277.832
1674564086.254,-1000.000,-31.250,-623.047,-86.914,-12.207
1674564086.258,-179.688,-28.320,-499.023,-56.152,78.125
1674564086.262,506.348,-33.691,-208.008,-54.688,-223.145
1674564086.264,521.973,-27.344,-86.426,-47.852,-254.395
1674564086.268,-76.660,-20.020,-165.039,-56.152,-159.180
1674564086.272,-1000.000,-18.066,-404.785,-112.793,-281.250
1674564086.276,-236.816,-21.973,-273.926,-91.309,-322.754
1674564086.280,503.906,-38.086,-262.207,-57.617,-281.250
1674564086.284,549.805,-36.621,-238.281,-41.016,-196.777
1674564086.288,89.844,-21.484,-213.867,-48.828,-86.914
1674564086.291,-1000.000,-22.461,-442.871,-105.957,-150.879
1674564086.295,-397.461,-21.973,-456.543,-79.102,-213.867
1674564086.299,457.520,-25.879,-526.367,-28.809,64.453
1674564086.303,598.145,-31.250,-143.555,-25.391,-24.902
1674564086.307,229.980,-28.320,77.637,-39.551,-278.320
1674564086.309,-799.805,-27.832,-292.969,-79.590,-249.512
1674564086.313,-427.734,-27.832,-310.059,-86.426,-268.555
1674564086.317,397.461,-31.250,-224.121,-70.312,-337.891
1674564086.321,692.383,-31.250,-53.223,-46.387,-353.027
1674564086.325,405.762,-25.879,-88.379,-36.133,-273.926
1674564086.329,-730.957,-26.855,-423.828,-90.820,-203.613
1674564086.333,-564.453,-30.762,-386.719,-113.281,-229.004
1674564086.336,341.309,-26.855,-248.535,-76.660,-334.473
1674564086.340,620.605,-26.855,-348.145,-33.691,-106.934
1674564086.344,492.676,-31.738,-523.438,-0.977,345.215
1674564086.348,-637.207,-39.551,-480.957,-76.172,37.109
1674564086.352,-700.684,-41.504,-326.660,-132.812,-364.258
1674564086.354,337.402,-37.598,-278.320,-83.984,-255.371
1674564086.358,585.449,-39.062,-167.969,-61.523,-268.555
1674564086.362,520.508,-45.410,17.578,-70.312,-304.199
1674564086.366,-504.883,-46.875,-255.371,-99.609,-289.551
1674564086.370,-821.777,-41.016,-492.676,-119.629,-304.688
1674564086.374,226.562,-46.387,-333.496,-86.914,-229.980
1674564086.378,517.090,-47.852,-240.234,-62.500,-183.105
1674564086.381,518.066,-33.203,-293.457,-39.062,-186.035
1674564086.385,-362.793,-27.344,-501.465,-59.082,-16.602
1674564086.389,-960.938,-28.809,-416.016,-102.539,-184.082
1674564086.393,86.914,-23.926,-236.816,-69.336,-424.805
1674564086.397,487.793,-27.832,-342.285,-41.992,-244.629
1674564086.399,501.953,-25.879,-207.031,-22.461,-121.094
1674564086.403,-203.613,-26.367,-133.301,-49.805,-260.254
1674564086.407,-1000.000,-26.855,-411.621,-105.469,-294.434
1674564086.411,-76.660,-15.625,-360.840,-61.035,-206.055
1674564086.415,528.320,-24.902,-265.625,-31.738,-205.078
1674564086.419,534.180,-29.785,-251.953,-34.180,-143.555
1674564086.423,-47.852,-26.367,-315.918,-53.223,-84.473
1674564086.426,-1000.000,-30.762,-609.863,-88.379,12.695
1674564086.430,-299.805,-28.809,-583.008,-58.105,141.113
1674564086.434,499.512,-20.996,-260.742,-40.039,-83.496
1674564086.438,606.445,-15.137,-118.164,-19.043,-224.609
1674564086.442,100.586,-14.648,-259.766,-6.836,-5.371
1674564086.444,-983.398,-21.484,-458.008,-64.453,-24.414
1674564086.448,-308.105,-35.156,-320.801,-72.266,-262.207
1674564086.452,561.035,-28.320,-294.434,-39.062,-122.559
1674564086.456,672.852,-20.020,-256.836,-18.555,76.172
1674564086.460,273.926,-22.949,-235.840,-27.832,-31.738
1674564086.464,-870.117,-23.438,-467.285,-86.426,-199.707
1674564086.468,-456.055,-29.297,-480.469,-76.172,-100.098
1674564086.471,416.992,-38.086,-466.797,-21.973,180.664
1674564086.475,636.230,-39.062,-205.566,-9.277,47.363
1674564086.479,355.469,-35.156,-20.996,-12.207,-145.020
1674564086.483,-682.617,-25.879,-329.590,-49.316,-78.125
1674564086.487,-532.227,-17.578,-433.594,-53.223,-95.703
1674564086.488,300.781,-15.625,-278.809,-29.297,-176.270
1674564086.492,648.926,-16.602,-190.918,-17.578,-116.699
1674564086.496,487.305,-20.508,-209.473,-3.906,-22.949
1674564086.500,-662.109,-31.250,-372.559,-52.246,-131.836
1674564086.504,-679.199,-39.551,-411.621,-57.129,-125.000
1674564086.508,328.613,-33.203,-355.469,-14.160,-37.109
1674564086.512,573.242,-28.320,-422.852,7.812,151.367
1674564086.515,518.066,-24.902,-406.250,23.438,376.953
1674564086.519,-537.109,-32.227,-394.043,-46.875,136.230
1674564086.523,-784.668,-39.062,-471.680,-84.473,-98.633
1674564086.527,293.457,-33.203,-469.238,-30.762,67.871
1674564086.531,578.613,-25.391,-400.391,-10.254,115.723
1674564086.533,542.969,-29.785,-157.715,-13.672,-121.094
1674564086.537,-345.215,-40.527,-342.773,-47.363,-85.449
1674564086.541,-1000.000,-36.621,-507.812,-84.961,-56.152
1674564086.545,-69.336,-40.039,-338.867,-52.734,-108.398
1674564086.549,416.504,-43.945,-297.852,-27.344,-148.438
1674564086.553,396.973,-33.691,-367.188,-0.488,59.082
1674564086.557,-298.828,-31.250,-504.395,-7.812,375.000
1674564086.560,-1000.000,-34.668,-482.910,-57.617,202.637
1674564086.564,-154.297,-35.156,-306.152,-29.297,-62.988
1674564086.568,417.969,-26.367,-429.199,12.207,117.188
1674564086.572,449.219,-13.672,-453.613,40.039,253.906
1674564086.576,-125.000,-13.672,-278.320,12.207,107.910
1674564086.593,-1000.000,-24.902,-445.312,-45.410,2.930
1674564086.597,-280.273,-26.367,-408.203,-20.020,47.852
1674564086.601,434.082,-20.996,-319.824,14.648,109.863
1674564086.605,500.000,-26.855,-168.945,34.180,45.898
1674564086.609,5.859,-24.902,-243.652,13.184,38.086
1674564086.613,-1000.000,-20.508,-610.840,-36.621,221.680
1674564086.617,-402.832,-21.973,-501.953,-21.484,258.301
1674564086.620,462.891,-20.020,-321.777,1.465,75.195
1674564086.624,609.863,-29.297,-285.645,16.602,110.352
1674564086.628,228.516,-29.785,-479.004,23.438,369.629
1674564086.632,-928.711,-24.902,-636.719,-31.250,377.441
1674564086.636,-472.656,-34.668,-373.047,-48.828,6.348
1674564086.638,455.078,-28.320,-335.938,-5.371,-30.762
1674564086.642,644.043,-12.695,-304.688,27.344,191.895
1674564086.646,391.113,-6.836,-227.539,20.508,125.977
1674564086.650,-784.668,-1.465,-367.676,-38.574,-54.199
1674564086.654,-535.156,-2.441,-425.293,-40.039,-34.180
1674564086.658,487.793,-7.324,-422.363,0.000,17.090
1674564086.662,701.660,-15.137,-333.008,7.324,83.496
1674564086.665,550.781,-21.484,-214.844,-0.977,75.684
1674564086.669,-609.863,-19.043,-495.605,-42.969,-15.625
1674564086.673,-648.926,-18.555,-646.484,-37.109,178.711
1674564086.677,374.512,-16.113,-365.723,-15.137,75.684
1674564086.681,605.469,-15.625,-278.809,-9.766,-70.312
1674564086.683,543.457,-20.996,-237.793,11.719,37.598
1674564086.687,-505.859,-10.742,-406.250,-35.156,-0.488
1674564086.691,-834.961,-15.137,-435.547,-60.059,-83.496
1674564086.695,198.730,-21.484,-325.684,-20.508,-49.805
1674564086.699,482.422,-7.324,-428.223,9.277,112.793
1674564086.703,466.309,-13.184,-397.461,21.973,208.008
1674564086.707,-433.105,-23.926,-406.250,-35.156,-6.836
1674564086.710,-902.832,-19.043,-449.707,-60.059,-90.820
1674564086.714,161.133,-19.531,-547.363,1.953,264.160
1674564086.718,442.383,-19.043,-565.430,19.043,457.031
1674564086.722,423.340,-16.602,-158.203,6.348,92.285
1674564086.726,-223.633,-21.484,-230.469,-20.508,-95.703
1674564086.728,-1000.000,-31.738,-499.512,-69.824,-61.035
1674564086.732,-332.520,-31.738,-362.305,-53.711,-76.172
1674564086.736,449.707,-12.695,-231.934,-11.230,-82.520
1674564086.740,551.270,-0.488,-253.418,12.695,-75.684
1674564086.744,-89.355,-11.719,-371.094,-13.672,-45.898
1674564086.748,-1000.000,-24.414,-517.090,-67.871,-48.828
1674564086.752,-217.285,-21.484,-413.574,-35.156,-63.965
1674564086.755,504.395,-18.066,-323.730,-4.883,48.828
1674564086.759,524.414,-17.578,-499.512,27.832,412.109
1674564086.763,37.598,-21.484,-448.242,6.836,315.430
1674564086.767,-1000.000,-28.809,-372.070,-83.008,-87.891
1674564086.771,-365.723,-27.832,-398.438,-64.453,-80.566
1674564086.773,498.535,-19.043,-285.645,-21.973,-57.129
1674564086.777,619.141,-16.113,-33.691,-8.301,-107.422
1674564086.781,235.352,-28.320,-2.441,-13.672,-83.008
1674564086.785,-915.039,-32.227,-341.797,-54.688,-42.969
1674564086.789,-444.336,-24.414,-388.184,-44.434,-83.984
1674564086.793,504.883,-25.879,-316.895,-15.137,-67.383
1674564086.797,722.168,-18.555,-201.660,0.000,41.016
1674564086.800,462.402,-13.184,-333.496,8.789,236.328
1674564086.804,-723.145,-24.902,-562.500,-14.160,287.598
1674564086.808,-495.605,-17.578,-332.031,-41.992,-18.066
1674564086.812,447.754,-6.348,-202.637,-47.363,-148.438
1674564086.816,667.969,-9.277,-362.793,-7.324,210.449
1674564086.818,537.109,-0.488,-189.941,-4.883,295.410
1674564086.822,-613.770,-2.930,-65.918,-81.543,-69.824
1674564086.826,-643.066,-13.672,-334.961,-93.262,-121.582
1674564086.830,392.578,-11.719,-153.809,-51.758,-58.594
1674564086.834,659.180,-8.789,76.172,-26.367,-60.059
1674564086.838,533.691,-5.859,49.316,-19.043,-35.645
1674564086.842,-389.648,-7.324,-254.395,-54.688,21.484
1674564086.845,-859.375,-9.277,-491.211,-65.918,205.078
1674564086.849,-32.227,-15.625,-148.438,-50.293,113.770
1674564086.853,542.969,-31.738,110.352,-42.969,-125.000
1674564086.857,519.531,-27.344,16.602,-19.043,-99.609
1674564086.861,-397.461,-16.602,-242.188,-48.340,-142.090
1674564086.863,-958.496,-20.996,-336.914,-93.262,-221.191
1674564086.867,98.145,-13.672,-127.930,-53.711,-215.332
1674564086.871,516.113,-5.371,-270.508,-14.160,-14.160
1674564086.875,525.391,-11.719,-178.711,-4.395,40.527
1674564086.879,-211.914,-9.766,-99.121,-49.316,-134.277
1674564086.883,-1000.000,-9.766,-419.434,-101.562,-204.102
1674564086.887,-52.734,-10.742,-430.176,-54.199,90.820
1674564086.890,516.602,-10.742,-328.125,-24.902,246.582
1674564086.894,515.625,-23.926,23.926,-33.203,18.555
1674564086.898,-85.938,-22.949,-121.582,-48.340,-54.199
1674564086.902,-1000.000,-22.949,-483.398,-78.613,-2.930
1674564086.906,-300.781,-20.996,-282.715,-52.246,8.301
1674564086.908,465.820,-3.906,22.461,-28.320,-187.012
1674564086.912,512.207,-8.789,42.480,-4.395,-181.641
1674564086.916,-11.719,-4.395,-56.641,-5.859,-62.988
1674564086.920,-1000.000,10.254,-292.480,-52.734,-121.094
1674564086.924,-422.852,7.324,-288.086,-27.832,-192.383
1674564086.928,396.484,-0.977,-248.047,13.672,-38.086
1674564086.932,502.441,-9.277,-332.520,40.527,272.461
1674564086.935,109.863,-13.672,-235.352,27.832,288.086
1674564086.939,-977.051,-19.531,-261.719,-45.898,-2.930
1674564086.943,-530.273,-17.090,-417.969,-17.578,-29.785
1674564086.947,341.797,-11.719,-376.465,30.762,98.145
1674564086.951,544.922,-17.578,63.477,19.043,14.648
1674564086.953,277.832,-15.137,130.371,2.930,46.387
1674564086.957,-861.816,-9.766,-238.281,-46.875,75.684
1674564086.961,-618.164,-20.508,-324.219,-48.340,-9.766
1674564086.965,318.359,-20.996,-112.793,-20.508,-77.637
1674564086.969,543.457,-17.578,87.402,0.488,-36.621
1674564086.973,386.719,-20.508,-69.336,22.461,146.484
1674564086.977,-719.238,-18.066,-391.113,-31.738,127.441
1674564086.980,-710.449,-16.602,-342.773,-62.988,-62.988
1674564086.984,291.992,-18.555,-233.887,-26.855,-78.125
1674564086.988,545.410,-16.113,-354.492,6.348,269.531
1674564086.992,500.977,-11.230,-459.961,29.785,550.781
1674564086.996,-523.438,-9.766,-344.238,-47.363,179.688
1674564087.013,-794.434,-18.555,-324.219,-81.543,-138.184
1674564087.017,277.832,-22.949,-236.816,-31.250,-120.605
1674564087.021,578.613,-19.043,4.883,-26.367,-105.957
1674564087.025,569.336,-18.066,135.742,-17.090,-145.996
1674564087.029,-324.219,-10.742,-163.574,-35.156,-94.727
1674564087.033,-984.863,-14.648,-471.191,-71.289,23.438
1674564087.037,12.695,-17.578,-313.965,-61.035,-8.301
1674564087.040,508.789,-19.043,-51.758,-52.734,-91.797
1674564087.044,515.137,-20.020,-30.762,-35.156,-56.641
1674564087.048,-265.625,-25.879,-389.648,-47.852,86.426
1674564087.052,-979.492,-38.086,-397.461,-99.609,-76.660
1674564087.056,51.270,-30.273,-235.840,-65.918,-219.727
1674564087.058,489.258,-30.762,-389.160,-28.320,-13.672
1674564087.062,508.789,-41.992,-229.004,-19.531,71.777
1674564087.066,-79.102,-41.016,-60.547,-50.293,-134.766
1674564087.070,-1000.000,-42.969,-412.598,-94.238,-181.152
1674564087.074,-223.633,-50.781,-377.930,-57.617,-125.488
1674564087.078,513.184,-44.922,-265.625,-26.855,-47.852
1674564087.082,565.918,-36.133,-249.512,-16.113,-40.527
1674564087.085,80.078,-32.227,-248.047,-30.762,-134.766
1674564087.089,-1000.000,-29.297,-596.680,-72.754,68.359
1674564087.093,-365.723,-30.762,-585.938,-36.621,409.180
1674564087.097,508.789,-30.762,-188.965,-25.391,70.312
1674564087.101,621.582,-40.039,-177.734,-26.855,-126.465
1674564087.103,221.680,-40.527,-247.559,-22.949,-48.828
1674564087.107,-932.617,-30.273,-368.164,-80.078,-108.398
1674564087.111,-470.703,-34.668,-334.961,-78.125,-117.188
1674564087.115,453.125,-37.109,-317.871,-39.551,-40.527
1674564087.119,635.742,-35.645,-320.312,-15.625,48.340
1674564087.123,388.672,-28.809,-294.922,-7.812,89.355
1674564087.127,-793.945,-23.438,-424.805,-62.988,8.789
1674564087.130,-578.125,-33.691,-499.512,-70.801,-67.383
1674564087.134,399.414,-40.527,-481.934,-13.184,160.645
1674564087.138,653.809,-48.340,-208.008,1.953,129.395
1674564087.142,475.098,-49.316,-9.766,-3.906,-17.090
1674564087.146,-549.805,-34.180,-308.594,-36.621,68.848
1674564087.149,-624.023,-27.832,-463.379,-45.898,4.395
1674564087.153,256.836,-24.902,-302.734,-15.625,-100.586
1674564087.157,650.391,-20.996,-239.258,7.324,-28.320
1674564087.161,549.805,-24.902,-244.629,17.578,39.551
1674564087.165,-481.934,-35.156,-401.855,-35.156,25.879
1674564087.169,-807.129,-44.434,-535.645,-64.453,24.414
1674564087.173,191.406,-33.203,-393.066,-27.344,27.832
1674564087.176,556.641,-27.344,-434.570,-1.465,189.941
1674564087.180,548.828,-26.367,-603.516,36.133,576.660
1674564087.184,-372.559,-24.902,-519.043,-20.020,359.863
1674564087.188,-927.246,-24.414,-418.457,-77.637,-56.152
1674564087.192,145.020,-22.461,-352.051,-34.180,-35.645
1674564087.194,518.066,-25.879,-277.832,-16.113,2.441
1674564087.198,478.516,-22.949,-112.305,1.953,45.898
1674564087.202,-203.125,-31.738,-203.125,-22.949,81.543
1674564087.206,-1000.000,-38.086,-505.371,-73.242,63.965
1674564087.210,-192.383,-25.879,-374.512,-36.133,55.176
1674564087.214,478.516,-15.625,-303.711,2.930,119.629
1674564087.218,502.930,-6.348,-354.492,20.020,178.711
1674564087.221,-160.156,-5.371,-483.887,10.254,358.887
1674564087.225,-1000.000,-10.742,-486.816,-49.316,171.387
1674564087.229,-107.910,-7.812,-317.871,-34.668,-111.328
1674564087.233,479.492,-5.859,-420.410,3.906,119.141
1674564087.237,569.336,-11.230,-293.945,15.625,238.281
1674564087.239,83.984,-8.301,-42.969,-17.090,83.008
1674564087.243,-1000.000,-7.324,-395.996,-64.453,-60.547
1674564087.247,-365.234,-19.531,-418.945,-33.691,-23.926
1674564087.251,474.609,-19.531,-188.477,-1.953,69.336
1674564087.255,585.449,-15.625,-53.223,12.207,50.781
1674564087.259,159.180,-20.996,-185.059,2.930,-24.902
1674564087.263,-911.133,-17.578,-587.891,-29.785,160.156
1674564087.266,-470.703,-4.395,-529.785,-15.137,301.758
1674564087.270,395.508,-0.488,-271.484,-19.043,101.074
1674564087.274,635.254,-3.906,-211.426,-18.066,74.219
1674564087.278,361.328,-1.953,-249.512,-4.883,194.336
1674564087.282,-792.969,-5.859,-388.672,-52.246,70.801
1674564087.284,-539.551,-11.230,-321.777,-60.059,-148.926
1674564087.288,428.223,-9.277,-293.945,-13.184,-24.414
1674564087.292,649.414,-14.648,-236.816,7.324,117.676
1674564087.296,493.164,-10.254,-22.949,4.395,72.266
1674564087.300,-645.508,-6.348,-224.609,-49.316,-95.703
1674564087.304,-672.363,-25.879,-447.266,-57.129,-46.387
1674564087.308,329.590,-23.438,-380.859,-14.160,211.914
1674564087.311,617.188,-14.160,-227.539,-6.836,125.488
1674564087.315,567.383,-17.090,58.105,-8.301,-72.754
1674564087.319,-486.816,-12.207,-299.805,-44.922,-51.758
1674564087.323,-797.363,-7.812,-564.941,-56.641,12.695
1674564087.327,261.230,-8.789,-206.543,-20.996,-42.969
1674564087.329,606.934,-14.160,-38.086,-10.254,-73.730
1674564087.333,600.098,-20.996,-54.199,3.906,-10.742
1674564087.337,-337.402,-27.344,-299.316,-27.832,14.160
1674564087.341,-912.109,-32.227,-392.090,-70.801,-81.055
1674564087.345,168.945,-22.949,-279.785,-28.320,-118.652
1674564087.349,572.754,-10.742,-409.180,10.742,280.762
1674564087.353,570.312,-13.184,-410.645,19.531,500.488
1674564087.356,-161.621,-28.320,-317.871,-33.203,65.918
1674564087.360,-1000.000,-27.344,-467.285,-78.613,-70.312
1674564087.364,-150.879,-18.066,-537.109,-23.926,263.672
1674564087.368,551.758,-12.207,-457.520,15.137,359.863
1674564087.372,526.367,-10.254,-104.980,2.930,47.363
1674564087.389,2.441,-29.785,-120.605,-14.648,-32.227
1674564087.393,-820.801,-33.203,-433.594,-40.527,14.648
1674564087.397,-458.984,-13.672,-394.043,-35.645,-23.438
1674564087.401,361.328,-14.160,-208.008,-8.301,-6.836
1674564087.405,665.039,-9.766,-186.035,26.855,93.262
1674564087.409,49.805,0.977,-353.516,22.949,146.484
1674564087.413,-958.008,-0.488,-492.188,-39.551,79.102
1674564087.416,-286.133,-3.906,-373.047,-30.762,32.715
1674564087.420,477.539,-4.395,-363.281,9.766,115.723
1674564087.424,592.773,1.465,-482.422,45.410,453.125
1674564087.428,209.961,1.953,-334.473,22.461,361.816
1674564087.432,-932.617,-14.648,-371.582,-64.941,-13.672
1674564087.434,-479.004,-15.137,-413.086,-50.293,18.066
1674564087.438,455.078,0.488,-285.645,-6.836,52.246
1674564087.442,668.457,6.836,-161.621,11.230,1.953
1674564087.446,374.512,9.766,-173.828,18.066,-43.945
1674564087.450,-679.688,5.859,-453.613,-27.344,-3.906
1674564087.454,-362.793,0.000,-472.656,-31.250,70.312
1674564087.458,449.219,0.000,-392.578,-9.277,22.949
1674564087.461,651.855,-2.441,-270.020,0.000,-68.359
1674564087.465,501.953,-1.953,-410.156,21.973,170.898
1674564087.469,-665.527,0.977,-656.738,-21.973,465.820
1674564087.473,-651.855,4.395,-409.668,-49.805,99.609
1674564087.477,390.137,4.395,-357.422,-9.766,-71.777
1674564087.494,629.395,-3.418,-330.566,11.230,73.242
1674564087.498,593.262,-7.324,-83.008,15.625,32.227
1674564087.502,-476.074,-3.418,-248.047,-26.855,-93.262
1674564087.506,-781.738,-5.859,-459.473,-52.734,-83.984
1674564087.510,276.367,-12.695,-371.094,-20.996,-25.879
1674564087.514,559.570,-13.184,-362.793,-1.953,-5.371
1674564087.518,542.969,-16.602,-291.016,13.672,60.547
1674564087.521,-327.148,-15.137,-459.961,-16.113,-10.742
1674564087.525,-990.723,-13.672,-632.324,-45.410,169.922
1674564087.529,-2.441,-13.672,-322.266,-18.555,198.242
1674564087.533,558.105,4.395,-270.020,7.324,-60.547
1674564087.537,550.293,7.812,-357.910,21.484,46.875
1674564087.524,-227.539,-6.348,-384.277,-18.066,82.031
1674564087.528,-1000.000,-2.930,-448.730,-62.500,-77.148
1674564087.532,-28.809,0.000,-364.258,-17.578,8.301
1674564087.536,517.578,-1.465,-409.180,24.414,230.469
1674564087.540,516.602,-0.488,-371.582,36.133,201.172
1674564087.544,-86.914,-6.348,-358.398,8.301,100.098
1674564087.548,-1000.000,-17.090,-598.633,-40.527,24.414
1674564087.551,-250.488,-8.789,-524.414,-18.066,-15.625
1674564087.555,494.141,-0.977,-382.324,5.371,69.336
1674564087.559,552.246,-4.883,-251.465,18.066,88.867
1674564087.563,41.016,-3.906,-245.605,3.906,-10.254
1674564087.567,-1000.000,-0.488,-697.266,-34.668,152.832
1674564087.569,-364.746,-3.418,-631.836,-13.672,370.605
1674564087.573,483.398,0.000,-242.676,-4.883,103.027
1674564087.577,609.863,-1.953,-269.531,6.836,20.020
1674564087.581,195.801,-12.695,-383.789,7.324,187.500
1674564087.585,-937.500,-10.254,-484.863,-45.898,136.230
1674564087.589,-475.586,-12.207,-466.797,-39.062,32.715
1674564087.593,448.730,-10.254,-384.766,1.953,71.777
1674564087.596,631.348,-0.488,-517.090,37.598,371.582
1674564087.600,348.633,-9.766,-451.660,20.508,305.176
1674564087.604,-811.035,-21.484,-375.488,-57.129,-143.066
1674564087.608,-556.152,-20.020,-468.750,-49.805,-95.215
1674564087.612,418.457,-19.043,-387.207,-23.926,0.488
1674564087.631,642.578,-27.832,-222.168,-20.996,-73.730
1674564087.635,503.906,-21.484,-188.477,-4.395,-43.945
1674564087.639,-619.141,-8.301,-430.664,-38.086,-61.035
1674564087.643,-664.062,-15.137,-453.613,-61.035,-137.695
1674564087.647,299.805,-26.855,-336.426,-45.410,-133.301
1674564087.651,576.660,-30.273,-307.617,-28.809,-50.781
1674564087.655,500.977,-36.621,-417.969,-2.930,306.641
1674564087.658,-536.621,-41.504,-585.938,-54.199,264.648
1674564087.662,-839.355,-42.480,-485.352,-98.145,-95.215
1674564087.666,170.898,-41.016,-365.234,-59.570,-148.438
1674564087.670,502.930,-44.922,-470.215,-27.832,67.871
1674564087.674,490.234,-54.688,-435.059,-24.414,181.152
1674564087.659,-400.391,-61.523,-333.008,-85.938,-139.160
1674564087.663,-952.637,-64.453,-477.539,-107.910,-174.316
1674564087.667,90.332,-57.129,-381.836,-54.688,-87.402
1674564087.671,491.699,-55.176,-268.066,-38.574,-61.523
1674564087.675,487.793,-52.246,-252.930,-21.973,-83.008
1674564087.679,-245.117,-45.410,-447.754,-30.762,-14.648
1674564087.683,-1000.000,-49.316,-572.266,-70.312,86.914
1674564087.686,-101.074,-42.480,-366.699,-39.551,5.859
1674564087.690,497.070,-36.621,-239.258,-10.742,-86.426
1674564087.694,508.301,-40.527,-352.539,10.742,-0.488
1674564087.698,-106.445,-45.898,-536.133,6.836,233.887
1674564087.702,-1000.000,-46.875,-483.398,-59.082,58.594
1674564087.705,-223.145,-36.621,-383.301,-47.852,-139.648
1674564087.709,485.840,-33.203,-459.473,-6.836,40.039
1674564087.713,520.996,-43.457,-334.473,1.465,111.328
1674564087.717,8.301,-49.316,-163.574,-28.320,-51.270
1674564087.721,-1000.000,-42.969,-485.840,-69.336,-79.590
1674564087.725,-400.391,-38.574,-502.441,-36.133,94.238
1674564087.729,441.895,-37.109,-364.746,-10.254,118.164
1674564087.732,569.824,-33.691,-212.402,-5.371,43.457
1674564087.736,177.734,-29.297,-197.266,-13.184,-10.742
1674564087.740,-938.477,-29.785,-642.578,-46.875,106.445
1674564087.744,-479.004,-40.527,-618.652,-40.527,298.340
1674564087.748,432.129,-41.504,-247.070,-27.832,16.602
1674564087.763,633.301,-30.273,-193.359,-1.953,-81.055
1674564087.767,319.336,-35.645,-243.652,-8.789,4.883
1674564087.771,-782.227,-42.480,-384.766,-70.801,-86.914
1674564087.775,-545.898,-40.527,-379.883,-79.102,-132.324
1674564087.779,336.914,-36.133,-365.723,-43.457,-30.762
1674564087.783,624.023,-23.438,-379.883,0.488,268.066
1674564087.787,442.383,-28.320,-246.582,-9.277,252.930
1674564087.790,-597.168,-38.086,-285.156,-72.754,-99.121
1674564087.794,-651.855,-38.574,-440.918,-78.613,-71.777
1674564087.798,244.141,-41.016,-438.965,-45.410,99.609
1674564087.802,629.883,-44.922,-187.500,-30.273,-31.250
1674564087.806,560.547,-39.551,-3.906,-27.344,-131.836
1674564087.808,-493.652,-25.879,-287.598,-77.148,-115.723
1674564087.812,-812.988,-19.531,-456.055,-101.074,-145.508
1674564087.816,235.352,-16.602,-228.027,-55.176,-157.227
1674564087.820,609.375,-15.137,-185.547,-23.926,-170.410
1674564087.824,606.934,-17.090,-200.195,-9.277,-70.312
1674564087.828,-337.891,-20.508,-366.211,-54.199,24.902
1674564087.832,-941.895,-18.555,-447.266,-95.703,-98.145
1674564087.835,111.328,-20.996,-287.598,-55.176,-66.406
1674564087.839,530.762,-21.484,-362.305,-9.766,223.145
1674564087.843,521.973,-17.578,-508.789,25.879,538.574
1674564087.847,-249.023,-18.555,-411.133,-27.344,307.129
1674564087.851,-1000.000,-13.184,-375.977,-94.238,-151.855
1674564087.853,-45.410,-9.766,-316.895,-43.945,-132.812
1674564087.857,492.188,-13.184,-139.160,-16.602,-67.871
1674564087.861,479.492,-26.855,38.086,-16.113,-117.188
1674564087.865,-130.859,-29.785,-163.574,-31.250,-162.109
1674564087.869,-1000.000,-29.785,-501.465,-72.266,-178.711
1674564087.873,-233.398,-29.297,-385.254,-36.133,-88.379
1674564087.877,481.445,-25.391,-294.434,-5.371,-40.527
1674564087.880,525.391,-28.809,-312.988,2.930,-42.480
1674564087.884,17.578,-27.344,-422.852,10.254,130.371
1674564087.888,-1000.000,-29.297,-458.008,-52.246,20.508
1674564087.892,-359.863,-29.785,-327.148,-43.457,-116.699
1674564087.896,484.863,-18.555,-369.141,10.742,113.770
1674564087.898,573.730,-18.555,-246.582,10.254,203.613
1674564087.902,150.879,-29.297,21.484,-39.551,3.906
1674564087.906,-958.496,-21.973,-316.406,-92.773,-95.215
1674564087.910,-484.863,-21.973,-404.785,-63.477,-47.363
1674564087.914,420.898,-31.250,-243.652,-47.852,-14.160
1674564087.918,618.652,-28.320,-247.070,-28.809,63.477
1674564087.922,330.078,-24.414,-233.398,-17.578,68.848
1674564087.925,-830.078,-20.508,-532.715,-52.246,132.324
1674564087.929,-577.148,-23.438,-626.953,-44.922,303.711
1674564087.933,402.344,-24.902,-231.934,-32.227,127.930
1674564087.937,633.789,-22.949,5.371,-14.648,-1.953
1674564087.941,452.637,-25.391,-140.137,-5.371,65.430
1674564087.945,-692.871,-29.785,-367.676,-58.594,-25.879
1674564087.949,-681.641,-32.227,-361.328,-56.152,-123.535
1674564087.953,315.918,-24.902,-346.680,-11.719,-46.875
1674564087.957,558.105,-22.461,-270.020,-4.883,41.016
1674564087.961,511.230,-22.461,-31.250,3.418,17.578
1674564087.965,-478.027,-22.949,-271.973,-32.227,-16.602
1674564087.969,-792.969,-24.414,-519.531,-56.152,28.320
1674564087.972,196.777,-23.926,-439.941,-6.836,238.770
1674564087.976,586.426,-28.809,-266.602,7.812,167.480
1674564087.980,543.945,-27.832,24.902,11.719,-60.547
1674564087.984,-293.945,-26.367,-233.398,-16.602,-50.293
1674564087.988,-962.402,-19.531,-534.668,-62.012,-86.426
1674564087.988,-76.172,-20.020,-298.828,-31.738,-86.426
1674564087.992,563.477,-28.320,-219.727,2.930,-72.266
1674564087.996,550.293,-23.438,-237.793,16.113,-18.066
1674564088.000,-210.938,-18.555,-308.594,-14.160,-2.930
1674564088.004,-1000.000,-21.973,-490.234,-60.547,-78.613
1674564088.008,-60.547,-21.484,-362.793,-26.367,39.062
1674564088.012,514.648,-18.066,-413.086,12.695,355.957
1674564088.015,503.906,-16.113,-473.145,30.273,560.547
1674564088.019,-111.328,-14.648,-309.082,-5.859,232.910
1674564088.023,-1000.000,-12.207,-469.238,-57.129,-62.988
1674564088.027,-221.680,-15.625,-458.984,-17.578,109.375
1674564088.031,483.887,-19.531,-313.965,6.348,151.367
1674564088.033,526.367,-17.090,-87.891,5.859,-20.020
1674564088.037,24.414,-19.531,-166.992,-1.953,8.789
1674564088.041,-939.453,-25.879,-484.375,-49.316,24.902
1674564088.045,-396.484,-19.043,-341.309,-37.598,47.852
1674564088.049,415.039,-14.160,-243.652,-3.418,37.598
1674564088.053,617.676,-18.555,-339.355,23.926,118.652
1674564088.057,194.336,-12.695,-403.809,19.043,311.035
1674564088.060,-924.805,-12.207,-447.754,-48.340,160.156
1674564088.064,-459.473,-12.207,-391.113,-35.645,-4.395
1674564088.068,448.242,0.000,-418.945,9.277,62.500
1674564088.072,624.023,-1.465,-382.324,16.113,186.035
1674564088.076,319.824,-3.906,-184.570,6.836,90.332
1674564088.079,-655.273,-4.395,-369.629,-36.133,-105.469
1674564088.083,-531.250,-7.324,-402.344,-38.086,-66.895
1674564088.087,258.301,-4.883,-311.035,-3.418,13.184
1674564088.091,666.992,-8.789,-207.031,19.043,-5.371
1674564088.095,462.402,-13.184,-142.090,25.879,-14.160
1674564088.099,-605.957,-8.301,-440.430,0.488,139.648
1674564088.103,-634.766,-6.348,-512.207,-20.020,190.430
1674564088.106,250.488,-7.812,-312.500,-18.555,49.805
1674564088.110,559.570,-8.301,-251.465,-4.883,-34.180
1674564088.114,486.328,-6.348,-427.246,26.367,171.387
1674564088.118,-555.176,-11.719,-585.938,-21.973,311.035
1674564088.122,-816.895,-16.602,-427.734,-68.359,15.625
1674564088.139,202.637,-14.160,-351.074,-33.203,-15.137
1674564088.143,492.676,-10.254,-325.195,-16.113,85.449
1674564088.147,490.234,-17.578,-74.707,-0.488,56.152
1674564088.151,-404.297,-27.344,-195.312,-43.945,-104.004
1674564088.155,-956.543,-16.113,-480.469,-73.242,-114.746
1674564088.159,70.801,-3.418,-366.699,-23.438,91.309
1674564088.163,463.867,-5.371,-320.801,-4.395,118.164
1674564088.166,458.496,-6.348,-117.676,0.977,-2.441
1674564088.170,-263.672,-1.465,-255.371,-23.438,3.418
1674564088.174,-1000.000,-12.695,-617.676,-63.965,145.508
1674564088.178,-118.652,-21.484,-304.199,-46.387,24.902
1674564088.182,459.473,-14.648,-181.641,-35.645,-128.418
1674564088.184,445.312,-16.602,-219.238,-27.832,-30.273
1674564088.188,-155.273,-30.273,-310.547,-45.410,-53.711
1674564088.192,-1000.000,-18.066,-487.793,-61.035,-168.945
1674564088.196,-261.719,2.930,-398.438,-43.945,-152.832
1674564088.200,413.574,-3.418,-360.352,-62.988,2.930
1674564088.204,447.754,-1.465,-361.328,-54.199,70.801
1674564088.208,-48.340,9.277,-286.621,-83.496,-42.480
1674564088.211,-1000.000,21.973,-382.324,-151.855,-189.941
1674564088.215,-483.887,24.414,-504.883,-136.230,-50.781
1674564088.219,289.551,20.020,-523.438,-104.492,285.156
1674564088.223,397.461,28.809,-64.453,-122.070,9.766
1674564088.227,-44.434,45.898,6.348,-140.137,-248.047
1674564088.229,-987.793,37.598,-373.535,-174.805,-295.410
1674564088.233,-572.754,32.715,-314.453,-179.688,-331.543
1674564088.237,156.738,46.875,-92.773,-161.133,-308.594
1674564088.241,356.934,55.664,47.363,-140.137,-241.699
1674564088.245,11.719,64.453,-25.391,-138.184,-180.664
1674564088.249,-961.914,60.547,-312.500,-191.406,-116.211
1674564088.253,-708.984,50.781,-328.125,-201.172,-153.809
1674564088.256,47.363,53.223,-255.859,-165.527,-232.422
1674564088.260,250.977,57.617,-425.781,-123.047,82.520
1674564088.264,-80.078,44.434,-192.383,-122.559,111.816
1674564088.268,-947.754,25.879,-69.824,-191.895,-243.164
1674564088.272,-863.770,33.203,-379.395,-177.734,-333.496
1674564088.273,-360.352,47.852,-190.918,-136.719,-299.805
1674564088.277,-274.414,46.387,102.539,-133.789,-327.637
1674564088.281,-513.672,38.086,141.113,-112.793,-316.895
1674564088.285,-987.793,34.180,-130.371,-143.066,-233.887
1674564088.289,-996.094,29.785,-301.758,-147.461,-264.160
1674564088.293,-827.148,32.715,-181.641,-83.984,-198.242
1674564088.297,-836.914,30.273,-0.977,-50.293,-116.211
1674564088.300,-902.832,14.160,-113.770,-19.531,21.973
1674564088.304,-987.793,-2.930,-436.523,-46.387,145.996
1674564088.308,-1000.000,-15.625,-364.258,-88.379,-113.281
1674564088.312,-994.629,-30.762,-183.105,-39.062,-255.859
1674564088.316,-1000.000,-44.922,-366.211,18.066,20.020
1674564088.318,-1000.000,-54.688,-255.371,34.180,78.125
1674564088.322,-1000.000,-64.453,-83.008,-34.668,-212.402
1674564088.326,-1000.000,-67.871,-463.379,-76.660,-277.832
1674564088.330,-1000.000,-79.590,-364.258,-37.109,-210.449
1674564088.334,-1000.000,-83.008,-279.297,-23.438,-125.488
1674564088.338,-1000.000,-81.055,-305.664,-0.488,-72.266
1674564088.342,-1000.000,-84.473,-412.109,-33.203,-15.137
1674564088.345,-1000.000,-91.797,-655.762,-81.055,130.371
1674564088.349,-1000.000,-89.844,-415.039,-50.781,15.137
1674564088.353,-1000.000,-87.402,-223.145,-63.477,-234.863
1674564088.357,-993.652,-90.820,-296.875,-63.965,-152.832
1674564088.361,-966.309,-81.055,-351.562,-78.613,-177.246
1674564088.364,-1000.000,-86.914,-454.590,-140.625,-318.848
1674564088.368,-578.613,-97.168,-347.656,-170.410,-400.391
1674564088.372,32.227,-97.168,-357.422,-154.785,-444.336
1674564088.376,551.270,-101.074,-223.633,-132.324,-537.109
1674564088.380,534.668,-107.910,-15.137,-177.734,-796.387
1674564088.384,-644.531,-104.980,-388.672,-265.137,-905.762
1674564088.388,-275.391,-102.051,-525.391,-247.559,-815.918
1674564088.391,738.770,-108.398,-413.574,-213.379,-824.707
1674564088.395,973.145,-117.188,-156.250,-246.094,-1000.000
1674564088.399,678.223,-122.070,-75.684,-263.672,-1000.000
1674564088.403,-181.641,-117.676,-353.516,-301.758,-995.605
1674564088.407,-198.242,-113.281,-362.793,-336.426,-1000.000
1674564088.408,442.383,-115.234,-23.926,-336.426,-1000.000
1674564088.412,828.613,-103.516,72.266,-297.363,-1000.000
1674564088.416,821.777,-84.473,61.035,-291.992,-1000.000
1674564088.420,116.211,-77.637,-155.762,-372.559,-1000.000
1674564088.424,318.848,-80.078,-340.820,-394.531,-1000.000
1674564088.428,-986.328,-84.473,-185.547,-368.164,-1000.000
1674564088.432,942.383,-87.402,-336.426,-368.164,-1000.000
1674564088.435,-988.770,-81.055,-184.570,-361.816,-1000.000
1674564088.439,473.633,-83.984,12.695,-437.988,-1000.000
1674564088.443,385.254,-95.215,-296.387,-461.914,-1000.000
1674564088.447,991.699,-96.191,-110.352,-415.039,-1000.000
1674564088.451,936.035,-90.820,221.191,-401.855,-1000.000
1674564088.453,-957.031,-80.078,256.348,-370.605,-1000.000
1674564088.457,542.480,-63.965,47.852,-403.320,-1000.000
1674564088.461,142.090,-77.637,-28.809,-434.570,-1000.000
1674564088.465,834.473,-100.586,196.777,-369.629,-1000.000
1674564088.469,970.215,-107.422,241.699,-333.008,-1000.000
1674564088.473,-985.840,-77.148,120.117,-293.945,-1000.000
1674564088.477,344.727,-33.203,11.230,-306.152,-1000.000
1674564088.480,-613.281,-35.156,-17.090,-350.586,-1000.000
1674564088.484,327.148,-39.062,116.211,-277.832,-1000.000
1674564088.488,965.820,-39.551,35.156,-189.941,-1000.000
1674564088.492,802.246,-40.527,-123.047,-123.047,-1000.000
1674564088.496,338.379,-49.316,131.348,-140.625,-1000.000
1674564088.514,-525.391,-56.152,58.105,-226.074,-1000.000
1674564088.518,84.473,-70.312,89.355,-199.219,-1000.000
1674564088.522,776.367,-63.965,232.422,-142.578,-1000.000
1674564088.526,852.051,-42.480,255.859,-113.281,-1000.000
1674564088.530,641.602,-31.738,187.988,-99.609,-1000.000
1674564088.534,-480.469,-28.809,-188.477,-175.781,-1000.000
1674564088.538,-256.836,-48.828,-116.211,-184.082,-1000.000
1674564088.541,595.215,-47.852,231.445,-113.281,-1000.000
1674564088.545,685.059,-27.832,231.445,-77.637,-999.512
1674564088.549,317.871,-26.855,51.758,-63.477,-995.117
1674564088.553,-559.082,-37.598,-51.758,-132.324,-991.211
1674564088.557,-129.395,-46.387,107.910,-136.719,-1000.000
1674564088.559,453.125,-45.898,88.867,-59.570,-942.871
1674564088.563,501.465,-40.527,112.305,-9.766,-823.730
1674564088.567,380.371,-45.898,264.160,-17.090,-865.234
1674564088.571,-465.820,-45.410,130.371,-77.637,-800.293
1674564088.575,-248.047,-28.320,-24.902,-65.430,-627.930
1674564088.579,612.305,-15.137,-30.273,-22.461,-450.195
1674564088.583,730.957,-13.184,132.812,2.441,-311.523
1674564088.586,355.957,-19.043,89.844,18.066,-264.648
1674564088.590,-632.812,-16.113,-367.188,-16.113,19.043
1674564088.594,-600.586,-15.137,-537.109,-20.020,323.242
1674564088.598,288.574,-35.156,-9.277,20.020,213.867
1674564088.602,519.531,-55.176,134.766,62.500,200.195
1674564088.604,354.492,-36.133,85.938,86.914,327.148
1674564088.608,-528.809,-11.719,-93.262,20.508,396.973
1674564088.612,-801.270,-4.395,-312.988,-9.766,497.070
1674564088.616,73.242,-7.324,-27.344,71.289,607.910
1674564088.620,432.129,-14.160,-11.719,124.512,827.148
1674564088.624,457.520,-13.672,47.363,136.719,977.051
1674564088.628,-307.617,-19.531,1.465,89.844,957.031
1674564088.631,-1000.000,-28.320,-292.969,40.039,964.844
1674564088.635,-354.980,-25.879,-304.199,97.656,965.332
1674564088.639,255.371,-26.855,65.918,133.301,965.332
1674564088.643,386.230,-26.367,344.727,140.137,965.332
1674564088.647,-333.496,-13.672,145.020,112.305,965.332
1674564088.649,-1000.000,-14.160,38.574,49.316,964.844
1674564088.653,-297.852,-20.996,293.457,94.238,965.332
1674564088.657,176.758,-20.508,358.887,135.742,965.332
1674564088.661,265.137,-20.020,315.430,156.738,964.844
1674564088.665,-205.566,-30.273,245.605,121.582,964.844
1674564088.669,-1000.000,-32.227,136.230,41.016,965.332
1674564088.673,-492.676,-25.879,244.141,79.590,965.332
1674564088.676,198.242,-27.832,216.797,147.461,965.332
1674564088.680,387.695,-20.020,60.059,201.172,965.332
1674564088.684,-14.648,-14.648,197.266,163.574,964.844
1674564088.688,-1000.000,-15.137,219.238,64.453,965.820
1674564088.692,-500.977,-29.297,227.539,129.395,964.844
1674564088.694,254.395,-34.180,325.195,180.664,951.172
1674564088.698,297.852,-17.578,398.926,141.602,956.055
1674564088.702,-48.340,-6.348,302.734,106.445,968.750
1674564088.706,-985.840,-18.066,118.652,48.340,955.078
1674564088.710,-584.961,-27.344,227.539,87.402,922.852
1674564088.714,189.941,-15.137,247.070,139.648,938.477
1674564088.718,404.297,-16.113,252.441,145.508,950.195
1674564088.721,223.145,-20.508,82.031,147.461,962.402
1674564088.725,-846.191,-20.020,-57.617,65.430,911.133
1674564088.729,-689.941,-29.785,166.992,47.363,821.289
1674564088.733,116.699,-37.109,133.301,108.887,875.977
1674564088.737,382.812,-23.926,79.102,136.230,925.781
1674564088.740,427.246,-18.066,235.840,129.883,875.977
1674564088.744,-608.887,-29.297,69.824,19.531,861.328
1674564088.748,-737.793,-36.621,-103.027,32.227,914.062
1674564088.752,-32.227,-38.574,20.508,161.621,970.215
1674564088.756,30.273,-39.551,125.977,173.828,948.730
1674564088.760,-63.965,-40.039,74.707,162.109,956.543
1674564088.764,-768.066,-45.898,-379.883,86.426,967.773
1674564088.767,-923.828,-42.480,-537.109,33.691,964.355
1674564088.771,-264.160,-38.574,-209.961,63.965,965.332
1674564088.775,9.277,-46.387,-211.914,81.055,963.867
1674564088.779,1.465,-48.340,-282.715,114.746,963.867
1674564088.783,-649.902,-52.246,-434.570,53.223,966.309
1674564088.784,-1000.000,-55.176,-432.129,-20.996,964.844
1674564088.788,-364.258,-54.199,-291.504,40.039,947.266
1674564088.792,-25.391,-62.500,-311.523,70.312,954.590
1674564088.796,36.621,-69.824,-208.008,77.148,978.516
1674564088.800,-498.047,-66.406,-315.918,27.832,921.387
1674564088.804,-1000.000,-63.477,-600.098,-41.992,893.555
1674564088.808,-445.312,-66.406,-539.551,25.391,968.750
1674564088.811,-113.281,-67.871,-362.305,53.711,932.617
1674564088.815,-145.020,-71.289,-263.672,49.805,884.766
1674564088.819,-518.066,-69.336,-477.539,18.555,911.621
1674564088.823,-1000.000,-70.801,-678.223,-64.941,876.465
1674564088.827,-594.727,-78.125,-432.617,-35.156,800.781
1674564088.831,-191.895,-85.449,-340.332,-1.465,764.160
1674564088.835,-174.805,-91.309,-375.488,7.324,795.898
1674564088.839,-504.883,-92.285,-443.359,-11.230,809.570
1674564088.843,-1000.000,-99.121,-617.188,-82.520,710.938
1674564088.847,-668.457,-94.238,-506.348,-55.664,625.000
1674564088.851,-229.492,-92.773,-543.457,-5.859,790.527
1674564088.855,-106.934,-100.586,-558.105,13.184,974.121
1674564088.858,-345.215,-99.121,-325.684,-28.320,795.898
1674564088.862,-1000.000,-102.539,-479.980,-107.910,582.031
1674564088.866,-760.254,-100.586,-612.793,-74.707,750.000
1674564088.870,-251.953,-97.656,-498.047,-35.156,815.430
1674564088.874,87.891,-112.793,-176.270,-27.832,601.074
1674564088.889,-83.984,-115.234,-227.051,-24.902,584.473
1674564088.893,-961.914,-106.445,-470.215,-110.352,561.523
1674564088.897,-777.344,-108.887,-389.160,-109.375,509.766
1674564088.901,-192.383,-106.445,-258.301,-56.152,505.859
1674564088.905,51.270,-119.141,-257.812,-37.598,652.832
1674564088.909,15.625,-123.047,-363.770,-12.695,762.695
1674564088.913,-822.266,-105.957,-526.855,-98.145,678.711
1674564088.916,-811.035,-101.074,-502.441,-137.695,555.664
1674564088.920,-14.648,-112.305,-424.316,-75.195,550.781
1674564088.924,278.809,-118.164,-537.598,-18.555,868.652
1674564088.928,317.383,-117.188,-405.762,-9.766,822.754
1674564088.932,-540.039,-122.559,-394.531,-103.027,469.727
1674564088.934,-916.992,-119.629,-481.445,-136.230,511.230
1674564088.938,-140.625,-113.770,-351.562,-91.309,604.004
1674564088.942,187.988,-108.887,-173.828,-69.824,575.195
1674564088.946,229.004,-103.516,26.855,-44.434,554.688
1674564088.950,-478.027,-99.121,-175.781,-97.656,505.859
1674564088.954,-1000.000,-104.004,-375.488,-150.391,507.324
1674564088.958,-316.406,-98.145,-80.566,-85.938,555.664
1674564088.961,66.406,-93.750,221.680,-62.500,497.070
1674564088.965,74.707,-100.098,125.488,-44.922,664.551
1674564088.969,-501.465,-105.469,-230.957,-78.613,-998.047
1674564088.973,-1000.000,-103.516,-14.160,-168.945,764.648
1674564088.977,-457.031,-94.727,265.137,-132.812,394.043
1674564088.994,-152.832,-100.586,274.902,-76.660,454.590
1674564088.998,-174.316,-104.980,396.484,-40.527,579.102
1674564089.002,-515.137,-102.051,333.008,-82.031,458.984
1674564089.006,-1000.000,-111.816,167.969,-172.363,351.074
1674564089.010,-700.684,-113.770,230.469,-139.648,396.484
1674564089.014,-353.516,-109.375,308.105,-92.773,479.492
1674564089.018,-334.473,-113.281,324.707,-80.566,569.824
1674564089.021,-627.930,-107.910,282.227,-103.027,574.219
1674564089.025,-1000.000,-108.398,-62.988,-161.133,625.000
1674564089.029,-780.762,-114.258,97.656,-142.090,505.859
1674564089.033,-401.367,-119.141,399.414,-105.469,289.551
1674564089.037,-188.965,-117.188,294.434,-76.660,431.641
1674564089.025,-458.496,-119.629,246.582,-88.867,506.836
1674564089.029,-1000.000,-114.258,128.418,-173.828,385.254
1674564089.033,-718.750,-105.469,186.035,-155.762,267.578
1674564089.037,-187.988,-114.746,122.070,-93.262,388.672
1674564089.041,121.094,-115.234,117.676,-57.129,541.992
1674564089.045,-65.918,-115.234,230.957,-64.453,538.574
1674564089.049,-959.961,-115.234,-18.555,-149.902,461.426
1674564089.052,-773.926,-102.539,-100.098,-133.301,446.777
1674564089.056,-142.578,-104.492,74.219,-77.637,584.473
1674564089.060,101.074,-110.840,225.098,-55.176,570.312
1674564089.064,34.180,-110.840,255.859,-51.758,416.016
1674564089.068,-833.496,-109.375,-206.543,-122.070,542.480
1674564089.068,-777.832,-113.770,-402.832,-125.977,832.031
1674564089.072,65.918,-116.699,115.723,-94.238,563.965
1674564089.076,325.195,-114.746,186.035,-72.754,351.562
1674564089.080,357.910,-113.281,116.211,-47.363,407.715
1674564089.084,-415.039,-113.770,-78.613,-103.516,351.074
1674564089.088,-768.555,-108.398,-328.125,-143.066,321.289
1674564089.092,-104.492,-104.004,-163.086,-101.074,350.586
1674564089.095,179.688,-103.516,-306.152,-41.504,680.176
1674564089.099,395.020,-107.422,-195.801,-21.973,699.707
1674564089.103,-272.949,-106.934,-1.953,-113.281,255.371
1674564089.107,-912.109,-102.051,-376.953,-160.156,152.344
1674564089.111,-84.961,-106.934,-290.527,-105.957,124.023
1674564089.113,435.547,-100.586,25.879,-84.473,91.309
1674564089.117,591.309,-101.074,100.586,-62.988,163.086
1674564089.121,-142.090,-103.516,-175.781,-108.887,186.523
1674564089.125,-950.195,-97.656,-399.414,-181.641,56.152
1674564089.129,-68.359,-95.703,-286.133,-133.301,30.762
1674564089.133,380.859,-83.008,-315.430,-96.680,76.660
1674564089.137,345.703,-72.266,-435.547,-72.266,261.230
1674564089.140,-168.945,-84.961,-568.359,-106.445,321.777
1674564089.144,-963.867,-88.379,-563.477,-194.824,-11.230
1674564089.148,-188.477,-81.543,-403.320,-150.391,-97.656
1674564089.152,411.133,-83.008,-488.770,-76.172,153.809
1674564089.156,456.055,-84.961,-510.254,-57.129,246.582
1674564089.158,90.820,-83.496,-348.145,-103.027,-65.918
1674564089.162,-744.629,-80.078,-564.453,-170.410,-205.078
1674564089.166,-406.738,-68.848,-547.363,-144.043,-174.805
1674564089.170,218.262,-62.988,-387.207,-89.844,-103.516
1674564089.174,520.996,-69.824,-401.367,-58.105,-116.699
1674564089.178,277.344,-69.336,-562.012,-64.941,-41.504
1674564089.182,-695.801,-69.336,-748.535,-125.488,162.109
1674564089.185,-385.254,-72.266,-613.281,-117.188,36.621
1674564089.189,340.820,-64.941,-468.262,-71.777,-151.855
1674564089.193,531.738,-60.547,-583.496,-42.480,-91.309
1674564089.197,336.914,-52.246,-703.125,-49.805,-57.617
1674564089.201,-680.664,-54.199,-798.828,-141.113,-77.637
1674564089.204,-493.652,-60.547,-732.910,-140.137,-194.824
1674564089.208,305.176,-47.852,-712.891,-63.965,-79.102
1674564089.212,520.508,-38.086,-743.652,-29.297,40.039
1674564089.216,451.172,-50.781,-625.977,-33.203,-106.934
1674564089.220,-558.594,-52.734,-786.621,-96.191,-168.945
1674564089.224,-615.723,-42.969,-867.188,-88.867,-20.996
1674564089.228,294.434,-37.598,-783.203,-22.461,114.258
1674564089.231,553.711,-34.180,-681.152,-7.812,2.441
1674564089.235,578.125,-28.809,-724.609,12.695,-20.996
1674564089.239,-328.613,-23.926,-912.109,-33.203,165.039
1674564089.243,-645.508,-25.879,-914.551,-75.684,226.562
1674564089.247,237.793,-28.809,-722.656,-34.180,-51.270
1674564089.263,436.523,-32.227,-698.242,4.395,-6.836
1674564089.267,397.949,-35.645,-726.074,28.320,67.871
1674564089.271,-340.820,-24.902,-829.102,-22.461,25.391
1674564089.275,-819.336,-12.207,-865.234,-67.383,-15.137
1674564089.279,40.527,-11.719,-785.156,4.395,-20.996
1674564089.283,415.527,-10.254,-824.707,48.828,279.785
1674564089.287,501.465,-12.695,-775.879,55.664,387.207
1674564089.290,-86.426,-13.184,-761.230,1.953,158.203
1674564089.294,-874.023,-11.719,-915.039,-54.688,61.035
1674564089.298,-177.246,-12.207,-906.738,12.207,273.438
1674564089.302,453.125,-8.301,-712.402,51.270,297.852
1674564089.306,573.242,-5.859,-690.918,63.965,141.113
1674564089.309,-3.418,-2.930,-785.645,40.039,153.809
1674564089.313,-917.969,8.301,-866.699,-27.344,152.344
1674564089.317,-216.797,18.555,-782.715,19.531,98.145
1674564089.321,443.359,12.207,-714.355,75.195,104.004
1674564089.325,504.395,9.766,-744.629,103.027,228.516
1674564089.329,121.582,14.648,-824.219,80.566,260.254
1674564089.333,-729.492,19.043,-897.461,-42.969,120.117
1674564089.336,-165.527,14.648,-837.402,-42.480,39.551
1674564089.340,556.152,7.324,-822.266,22.949,268.555
1674564089.344,720.215,13.184,-912.109,67.383,673.828
1674564089.348,543.457,17.578,-819.336,51.758,468.750
1674564089.352,-397.461,18.066,-802.246,-52.246,27.832
1674564089.354,-63.477,22.461,-784.668,-34.180,-1.465
1674564089.358,750.000,20.020,-640.625,20.508,67.383
1674564089.362,888.184,18.066,-596.191,47.363,30.762
1674564089.366,678.711,17.090,-651.855,52.246,-17.578
1674564089.370,-199.707,20.020,-810.059,-22.949,-58.105
1674564089.374,-38.086,23.438,-787.598,-22.949,-38.086
1674564089.378,618.652,21.484,-670.898,38.574,28.320
1674564089.381,741.211,15.137,-642.090,64.941,23.926
1674564089.385,701.660,11.719,-721.191,113.770,286.621
1674564089.389,-276.367,18.066,-764.160,38.574,250.488
1674564089.393,-407.715,18.555,-623.047,-44.922,-105.469
1674564089.397,383.789,16.113,-654.785,18.555,53.223
1674564089.399,593.750,14.160,-669.922,70.312,230.469
1674564089.403,554.688,23.926,-464.355,69.824,149.902
1674564089.407,-426.270,31.738,-626.953,-5.371,111.328
1674564089.411,-669.922,22.949,-676.270,-33.203,168.945
1674564089.415,272.949,22.949,-551.758,40.039,203.125
1674564089.419,509.766,31.250,-575.195,75.195,255.371
1674564089.423,541.016,29.785,-537.109,103.516,356.445
1674564089.426,-304.688,27.832,-712.402,67.383,477.051
1674564089.430,-864.746,21.973,-838.379,12.207,619.141
1674564089.434,14.160,22.461,-531.738,54.199,392.578
1674564089.438,259.277,31.738,-469.727,78.613,198.242
1674564089.442,213.867,31.250,-539.062,101.074,322.266
1674564089.444,-387.695,24.902,-591.797,54.688,380.371
1674564089.448,-1000.000,18.555,-651.855,-31.250,190.430
1674564089.452,-400.391,22.461,-535.156,23.926,118.164
1674564089.456,67.383,27.344,-527.832,57.617,200.684
1674564089.460,127.441,21.484,-486.816,66.406,182.129
1674564089.464,-337.402,21.973,-564.453,31.250,121.094
1674564089.468,-1000.000,26.855,-705.566,-53.711,21.484
1674564089.471,-533.203,28.809,-708.496,-8.789,220.215
1674564089.475,149.902,29.297,-500.977,25.391,152.832
1674564089.479,392.578,33.691,-346.680,23.438,-88.867
1674564089.483,-16.113,31.738,-544.922,13.672,-67.383
1674564089.487,-795.410,31.738,-689.453,-53.711,-127.930
1674564089.504,-473.145,32.715,-485.840,-58.105,-159.668
1674564089.508,86.426,29.297,-395.508,-18.066,-162.598
1674564089.512,315.430,33.203,-411.621,25.391,-155.273
1674564089.516,3.418,37.598,-475.586,11.719,-152.344
1674564089.520,-828.125,23.926,-610.352,-83.008,-274.414
1674564089.524,-415.527,20.020,-528.320,-71.289,-335.938
1674564089.528,363.770,34.668,-568.848,0.488,-139.160
1674564089.531,652.344,39.551,-606.445,37.598,56.152
1674564089.535,526.855,43.945,-402.832,22.949,-143.555
1674564089.539,-399.902,36.621,-525.391,-68.848,-383.789
1674564089.543,-199.707,25.879,-609.863,-42.480,-282.715
1674564089.547,586.426,20.020,-443.848,11.719,-205.078
1674564089.534,823.730,21.973,-252.441,20.996,-344.238
1674564089.538,727.539,20.508,-312.500,42.969,-353.027
1674564089.542,-155.762,26.855,-509.766,-20.996,-372.559
1674564089.546,-231.445,38.086,-456.055,-34.180,-418.457
1674564089.550,505.371,42.480,-370.117,17.578,-388.672
1674564089.554,785.156,41.504,-413.086,42.480,-207.520
1674564089.558,812.012,33.691,-376.953,49.316,45.898
1674564089.561,-17.090,35.645,-478.027,-21.484,-99.609
1674564089.565,-312.988,30.762,-468.262,-63.965,-299.316
1674564089.569,538.086,24.414,-373.535,7.812,-238.770
1674564089.573,794.922,33.203,-570.312,66.895,186.523
1674564089.577,856.934,33.691,-442.871,77.148,207.031
1674564089.579,163.574,29.785,-333.008,-7.812,-187.012
1674564089.583,-371.094,27.832,-470.215,-60.059,-159.668
1674564089.587,509.277,22.461,-362.793,4.395,-129.883
1674564089.591,898.926,24.414,-250.488,41.992,-176.270
1674564089.595,899.414,24.414,-228.027,56.641,-91.309
1674564089.599,273.438,22.949,-398.438,16.602,50.293
1674564089.603,-417.969,19.043,-544.922,-46.387,21.484
1674564089.606,442.871,20.996,-374.512,-5.371,-92.773
1674564089.610,910.156,20.996,-267.578,22.949,-76.660
1674564089.614,871.094,12.695,-456.055,47.852,117.676
1674564089.618,333.496,13.184,-622.559,35.156,388.672
1674564089.622,-535.156,14.648,-469.727,-55.176,121.582
1674564089.639,160.156,19.043,-317.871,-15.137,-142.090
1674564089.643,768.066,21.973,-310.059,39.551,-20.020
1674564089.647,831.055,21.484,-138.672,48.340,11.230
1674564089.651,487.793,19.043,-128.418,31.738,-62.012
1674564089.655,-428.223,12.695,-447.754,-37.109,-61.035
1674564089.659,78.613,18.555,-430.176,0.488,58.105
1674564089.663,822.754,26.367,-285.156,48.340,119.141
1674564089.666,910.645,24.902,-29.785,55.664,109.863
1674564089.670,580.566,22.949,-117.188,50.781,89.844
1674564089.674,-318.359,19.043,-541.992,-14.160,200.195
1674564089.678,22.461,19.043,-296.387,-20.996,111.816
1674564089.682,763.672,23.438,-18.555,20.020,-30.273
1674564089.684,926.270,23.926,-26.367,55.176,15.625
1674564089.688,707.031,26.367,-181.152,45.410,56.152
1674564089.692,-110.352,27.344,-310.059,-39.062,-26.367
1674564089.696,-0.977,26.855,-226.562,-40.527,-168.457
1674564089.700,636.719,24.414,-286.133,20.020,15.625
1674564089.704,859.375,14.160,-328.125,55.176,156.250
1674564089.708,791.992,3.418,-35.156,46.387,44.434
1674564089.711,-122.559,2.930,-99.609,-47.852,-59.570
1674564089.715,-194.336,11.230,-433.105,-54.688,86.426
1674564089.719,654.785,19.043,-448.242,26.855,449.707
1674564089.723,867.188,12.207,-16.602,29.785,172.852
1674564089.727,860.840,6.836,165.039,48.340,-58.105
1674564089.729,104.492,12.207,-143.066,2.930,-21.973
1674564089.733,-211.426,15.625,-264.160,-55.176,-71.777
1674564089.737,608.398,14.648,11.230,-14.160,-101.074
1674564089.741,950.684,10.254,75.684,20.508,-67.871
1674564089.745,936.035,8.789,41.992,47.363,-10.254
1674564089.749,214.844,9.766,-136.719,-30.273,-20.996
1674564089.753,-279.785,7.812,-392.578,-68.359,-83.496
1674564089.756,527.832,9.766,-237.793,0.000,-70.801
1674564089.760,873.047,9.277,-388.672,31.250,243.164
1674564089.764,914.551,5.371,-246.094,67.383,245.605
1674564089.768,315.430,6.836,-16.113,0.977,-141.113
1674564089.772,-416.992,8.301,-416.992,-76.172,-180.176
1674564089.774,370.117,-3.418,-337.891,-15.137,-145.996
1674564089.778,915.039,-2.441,6.836,25.879,-125.000
1674564089.782,924.805,-2.441,83.496,42.969,-62.012
1674564089.786,446.289,-5.371,-121.582,20.508,-32.715
1674564089.790,-348.145,-6.836,-424.316,-46.875,-99.609
1674564089.794,245.117,-13.672,-409.668,-8.789,-105.957
1674564089.798,815.430,-17.090,-241.211,30.762,1.953
1674564089.801,867.188,-12.695,-367.188,66.406,254.395
1674564089.805,455.566,-5.859,-544.922,57.617,394.043
1674564089.809,-450.195,2.441,-516.113,-47.363,46.875
1674564089.813,-15.137,4.395,-394.531,-30.273,-130.371
1674564089.817,602.539,8.789,-427.734,39.551,135.742
1674564089.834,710.938,11.230,-380.859,59.570,208.984
1674564089.838,404.785,-0.977,-205.566,27.832,-50.781
1674564089.842,-597.168,5.371,-450.195,-52.734,-131.348
1674564089.846,-303.711,8.301,-414.551,-36.133,-110.840
1674564089.850,450.684,1.953,-270.996,15.625,-22.949
1674564089.854,629.395,2.930,-298.340,36.133,10.254
1674564089.858,432.617,0.000,-354.004,32.227,16.602
1674564089.861,-557.617,-1.465,-605.957,-29.785,198.242
1674564089.865,-424.316,-3.418,-458.496,-36.133,150.879
1674564089.869,361.328,-2.930,-222.656,3.418,-73.730
1674564089.873,561.035,-2.930,-325.195,40.527,-8.789
1674564089.877,483.398,-1.953,-371.582,53.223,72.754
1674564089.865,-484.375,-11.719,-433.105,-35.156,15.137
1674564089.869,-583.496,-19.043,-367.676,-55.176,-68.848
1674564089.873,200.684,-5.859,-409.668,21.973,81.055
1674564089.877,376.953,-3.906,-415.527,37.109,227.051
1674564089.881,379.395,-2.930,-249.023,30.762,148.438
1674564089.885,-508.789,4.395,-484.375,-38.086,92.773
1674564089.889,-834.961,0.488,-627.930,-61.035,186.035
1674564089.892,13.672,-2.930,-469.727,1.953,190.918
1674564089.896,259.766,2.441,-352.539,18.066,90.820
1674564089.900,307.129,2.441,-314.941,37.109,129.395
1674564089.904,-426.270,5.371,-556.641,-10.742,230.957
1674564089.908,-968.262,4.395,-737.793,-37.109,352.051
1674564089.908,-102.539,-1.953,-343.750,24.902,117.188
1674564089.912,258.789,0.977,-281.738,41.504,-8.301
1674564089.916,318.848,-3.418,-337.402,54.688,124.023
1674564089.920,-259.766,-3.906,-400.879,5.859,88.867
1674564089.924,-986.328,6.836,-503.906,-66.895,-61.035
1674564089.928,-208.008,11.230,-408.691,-19.043,-40.527
1674564089.932,255.371,6.836,-541.016,33.203,377.930
1674564089.935,319.336,-1.465,-483.887,38.086,395.508
1674564089.939,-138.184,-3.418,-288.574,-18.555,-65.918
1674564089.943,-991.211,3.906,-574.219,-83.496,-164.062
1674564089.947,-348.145,17.578,-496.094,-43.457,-88.379
1674564089.951,266.113,17.578,-248.535,-2.930,-75.684
1674564089.953,368.652,13.672,-220.703,16.602,-65.918
1674564089.957,0.977,24.414,-362.793,2.441,-0.488
1674564089.961,-847.656,26.367,-544.922,-64.941,-108.887
1674564089.965,-416.992,18.555,-416.992,-50.293,-232.422
1674564089.969,223.145,22.949,-307.129,-3.906,-232.422
1674564089.973,402.344,25.391,-455.078,35.156,136.230
1674564089.977,126.953,21.973,-518.066,22.949,366.211
1674564089.980,-755.371,25.879,-491.211,-68.848,47.852
1674564089.984,-471.191,34.668,-419.922,-59.082,-88.379
1674564089.988,221.191,34.180,-481.934,4.395,175.781
1674564089.992,450.684,28.809,-497.070,30.762,407.227
1674564089.996,292.480,27.832,-248.535,8.301,64.941
1674564090.013,-652.344,28.809,-427.734,-69.824,-208.984
1674564090.017,-520.996,28.320,-467.285,-64.941,-210.449
1674564090.021,265.625,24.414,-305.664,-6.836,-191.895
1674564090.025,509.277,28.809,-249.023,24.414,-183.105
1674564090.029,457.031,33.203,-298.828,34.180,-123.535
1674564090.033,-509.766,27.344,-495.605,-33.691,37.109
1674564090.037,-583.008,24.902,-459.961,-51.758,66.406
1674564090.040,266.602,29.297,-269.043,-1.465,-48.340
1674564090.044,499.023,38.086,-303.711,30.273,-43.945
1674564090.048,521.973,35.156,-436.523,63.477,155.762
1674564090.052,-370.605,26.367,-500.000,-19.043,39.062
1674564090.056,-685.059,28.809,-424.316,-65.918,-166.016
1674564090.058,183.594,22.949,-399.902,14.160,-60.547
1674564090.062,411.133,16.113,-475.586,33.203,-15.137
1674564090.066,479.980,18.066,-248.047,36.133,-113.281
1674564090.070,-261.719,20.020,-345.215,-6.836,-140.625
1674564090.074,-815.430,20.996,-517.090,-61.035,-136.719
1674564090.078,38.574,17.090,-416.992,-4.395,44.434
1674564090.082,390.625,17.090,-360.352,31.738,37.109
1674564090.085,399.902,20.020,-283.203,40.527,-143.555
1674564090.089,-47.852,20.020,-470.215,23.438,82.520
1674564090.093,-770.508,26.855,-720.215,-16.602,362.305
1674564090.097,-371.582,25.879,-419.922,-24.902,46.387
1674564090.101,276.855,21.973,-273.438,8.789,-172.363
1674564090.104,464.844,22.949,-325.195,47.363,-36.621
1674564090.108,-40.527,30.273,-366.211,18.066,24.902
1674564090.112,-880.371,36.621,-440.430,-69.336,-89.355
1674564090.116,-235.352,28.320,-347.168,-30.762,-95.215
1674564090.120,358.398,26.855,-345.703,34.668,29.785
1674564090.124,404.785,29.297,-340.820,39.062,39.551
1674564090.128,6.836,29.297,-368.652,0.000,-25.879
1674564090.131,-952.148,29.785,-548.828,-89.844,-109.375
1674564090.135,-496.582,31.250,-585.449,-44.434,44.922
1674564090.139,197.266,17.090,-371.582,-1.953,8.301
1674564090.143,341.309,14.160,-207.031,0.977,-201.172
1674564090.147,39.062,32.227,-375.000,11.230,-137.207
1674564090.148,-799.316,33.203,-544.434,-62.012,-176.758
1674564090.152,-592.773,27.344,-396.484,-62.500,-295.410
1674564090.156,63.477,29.297,-322.266,-7.324,-250.000
1674564090.160,386.230,29.297,-313.965,26.367,-183.594
1674564090.164,158.691,30.273,-365.723,27.344,-147.461
1674564090.168,-531.738,27.344,-497.559,-40.527,-174.316
1674564090.172,-685.547,16.602,-509.277,-75.684,-277.832
1674564090.175,-182.129,20.508,-540.039,-27.832,-105.469
1674564090.179,398.926,24.902,-651.367,45.410,345.215
1674564090.183,340.332,13.672,-453.125,31.738,161.133
1674564090.187,-616.211,15.625,-426.270,-70.801,-299.316
1674564090.191,-701.172,12.695,-521.973,-81.543,-274.902
1674564090.196,135.254,8.789,-306.152,-12.207,-202.637
1674564090.200,361.816,18.555,-253.906,11.719,-220.703
1674564090.204,387.695,16.602,-287.598,24.414,-138.184
1674564090.208,-489.258,10.742,-451.660,-36.621,-170.898
1674564090.212,-800.293,7.812,-507.324,-78.125,-316.895
1674564090.216,77.637,15.625,-450.195,-16.602,-238.281
1674564090.220,315.918,20.996,-412.598,7.812,-177.734
1674564090.223,352.539,14.648,-548.340,33.691,173.828
1674564090.227,-378.906,20.020,-636.230,-24.902,187.012
1674564090.231,-899.414,21.484,-437.012,-95.215,-278.320
1674564090.235,-29.785,7.812,-436.523,-30.273,-183.594
1674564090.239,297.852,-3.906,-481.934,0.000,-74.219
1674564090.238,367.676,-0.488,-314.941,13.672,-153.809
1674564090.242,-205.566,7.812,-389.160,-32.715,-193.359
1674564090.246,-931.152,-0.977,-549.316,-99.121,-185.547
1674564090.250,-97.168,-0.977,-425.293,-44.922,-184.082
1674564090.254,442.871,9.766,-378.906,-0.977,-233.887
1674564090.258,496.582,14.160,-386.230,13.184,-157.227
1674564090.262,53.223,21.973,-544.922,-3.906,91.797
1674564090.265,-744.629,20.020,-733.887,-62.012,105.957
1674564090.269,-251.953,5.859,-497.070,-49.805,-127.930
1674564090.273,402.832,9.766,-396.973,-0.977,-166.992
1674564090.277,549.805,17.090,-497.070,35.645,33.203
1674564090.281,144.043,19.043,-518.555,13.184,82.520
1674564090.285,-777.832,3.418,-511.719,-83.984,-260.254
1674564090.289,-325.195,2.441,-479.004,-47.363,-285.156
1674564090.293,376.465,15.625,-429.688,20.508,-54.688
1674564090.297,540.039,14.160,-318.359,42.969,-9.766
1674564090.301,286.621,14.648,-353.027,31.738,-111.328
1674564090.305,-675.293,15.625,-569.824,-47.363,-63.965
1674564090.309,-361.328,12.695,-639.160,-14.160,245.117
1674564090.312,407.715,4.395,-471.680,32.715,183.594
1674564090.316,618.652,6.348,-244.629,35.156,-115.723
1674564090.320,465.820,18.555,-386.230,53.223,-91.797
1674564090.324,-502.930,25.391,-577.637,-25.391,-91.797
1674564090.328,-370.605,16.113,-426.270,-38.086,-112.793
1674564090.330,421.875,13.184,-300.293,32.715,-72.266
1674564090.334,625.977,14.648,-345.703,64.941,-1.465
1674564090.338,571.777,15.625,-401.367,74.219,51.270
1674564090.342,-367.188,23.926,-457.031,-11.230,3.418
1674564090.346,-444.336,18.066,-431.152,-40.527,-62.500
1674564090.350,390.137,9.277,-498.535,29.297,179.199
1674564090.354,575.684,7.812,-630.859,66.406,571.289
1674564090.357,613.281,8.789,-354.492,60.059,362.793
1674564090.361,-247.070,17.578,-377.441,-24.902,5.371
1674564090.365,-591.309,19.043,-640.137,-42.969,120.605
1674564090.369,295.410,11.230,-439.941,15.137,172.852
1674564090.373,556.641,-2.441,-243.652,22.461,-38.574
1674564090.388,587.891,1.465,-331.055,46.387,-83.984
1674564090.392,-66.406,11.719,-445.312,-2.930,-73.242
1674564090.396,-678.223,6.836,-488.281,-68.359,-138.184
1674564090.400,66.406,3.906,-359.863,-18.066,-133.301
1674564090.404,584.473,4.883,-332.031,28.809,-47.852
1674564090.408,646.484,9.277,-404.297,54.199,69.336
1674564090.412,50.781,19.043,-457.520,7.324,96.680
1674564090.415,-669.434,20.508,-529.297,-62.500,20.508
1674564090.419,139.160,12.695,-428.711,-6.836,-30.762
1674564090.423,611.816,8.301,-560.547,47.363,226.562
1674564090.427,669.434,0.488,-395.996,67.383,250.977
1674564090.431,213.379,3.418,-235.840,7.812,-65.430
1674564090.434,-708.984,8.789,-537.598,-100.098,-99.121
1674564090.438,-80.078,0.977,-436.035,-64.941,-36.621
1674564090.442,541.016,1.465,-270.020,-10.742,-66.406
1674564090.446,610.840,3.906,-231.934,8.789,-95.703
1674564090.450,245.117,6.348,-299.316,-2.441,-25.391
1674564090.454,-698.730,6.348,-547.363,-78.125,20.508
1674564090.458,-226.562,-2.441,-418.945,-50.781,-16.602
1674564090.461,492.188,-1.953,-187.988,9.277,-79.102
1674564090.465,618.164,5.371,-393.555,53.223,163.086
1674564090.469,323.242,7.812,-492.188,48.340,370.605
1674564090.473,-580.566,2.441,-414.551,-49.805,-26.367
1674564090.477,-312.500,11.230,-382.812,-44.434,-256.348
1674564090.494,365.234,16.602,-457.520,19.531,69.336
1674564090.498,593.262,5.371,-428.223,43.457,327.637
1674564090.502,445.312,3.418,-66.895,20.996,42.969
1674564090.506,-545.410,6.836,-297.363,-58.594,-199.219
1674564090.510,-447.754,8.789,-426.270,-61.035,-172.363
1674564090.514,349.609,5.859,-316.895,-4.395,-89.844
1674564090.518,568.359,2.930,-274.414,20.508,-38.086
1674564090.521,522.949,8.301,-267.090,23.438,-42.969
1674564090.525,-431.152,8.789,-526.367,-41.016,79.590
1674564090.529,-520.508,1.465,-437.988,-67.871,30.273
1674564090.533,330.566,6.836,-156.250,-16.602,-184.082
1674564090.537,515.625,8.789,-245.117,12.207,-156.250
1674564090.524,517.090,5.371,-301.758,27.832,-44.922
1674564090.528,-351.074,7.812,-306.152,-41.992,-62.012
1674564090.532,-691.406,13.184,-348.145,-77.637,-213.867
1674564090.536,178.711,18.066,-353.027,-0.488,-85.938
1674564090.540,447.754,19.531,-409.180,35.645,24.414
1674564090.544,468.262,20.020,-260.254,41.504,-24.902
1674564090.548,-263.672,21.484,-381.348,-13.184,-33.691
1674564090.551,-818.359,12.207,-492.676,-58.105,7.324
1674564090.555,19.043,4.883,-333.496,-1.465,74.219
1674564090.559,450.195,11.719,-266.602,31.250,31.250
1674564090.563,497.070,10.742,-145.020,39.551,-84.473
1674564090.567,-109.863,10.254,-406.250,9.277,94.727
1674564090.569,-869.141,17.578,-750.000,-35.645,411.133
1674564090.573,-113.770,14.160,-350.098,-4.883,183.594
1674564090.577,457.031,9.277,-177.246,13.672,-54.199
1674564090.581,534.668,10.742,-298.828,21.973,23.926
1674564090.585,25.391,9.766,-308.105,2.441,45.410
1674564090.589,-831.543,12.695,-463.867,-62.012,-32.715
1674564090.593,-238.281,18.555,-367.676,-23.926,-19.531
1674564090.596,387.207,22.949,-464.355,39.062,295.898
1674564090.600,479.492,20.508,-343.262,52.246,317.383
1674564090.604,134.277,15.625,12.207,17.090,-76.172
1674564090.608,-800.293,7.812,-386.230,-53.711,-134.277
1674564090.612,-337.891,4.883,-434.570,-31.250,-86.426
1674564090.614,382.324,11.230,-97.656,12.207,-100.586
1674564090.618,535.645,16.113,69.824,35.156,-77.637
1674564090.622,278.809,18.555,-115.234,34.668,-21.484
1674564090.626,-696.289,14.648,-424.316,-47.852,-143.066
1674564090.630,-410.156,10.254,-345.215,-37.598,-222.656
1674564090.634,320.801,6.836,-271.973,16.113,-144.531
1674564090.638,493.164,4.883,-359.863,50.781,154.297
1674564090.641,359.375,7.812,-413.574,70.312,458.496
1674564090.645,-586.426,7.812,-388.672,-18.066,147.949
1674564090.649,-501.953,12.695,-343.750,-56.641,-161.621
1674564090.653,261.230,18.555,-426.270,-3.906,24.902
1674564090.657,485.840,11.719,-351.562,28.320,165.039
1674564090.658,445.801,13.672,1.465,16.113,-114.746
1674564090.662,-445.801,13.672,-248.047,-45.410,-166.992
1674564090.666,-574.219,0.488,-422.852,-67.871,-165.527
1674564090.670,221.191,-2.930,-242.676,-10.254,-172.363
1674564090.674,509.766,2.930,-182.617,37.598,-122.070
1674564090.678,521.973,2.930,-264.648,54.688,-47.852
1674564090.682,-336.426,-4.883,-472.168,-14.160,135.254
1674564090.685,-708.984,0.488,-447.266,-57.617,25.391
1674564090.689,160.645,17.090,-203.613,3.418,-175.781
1674564090.693,482.422,19.531,-247.559,32.227,-8.301
1674564090.697,533.203,5.371,-345.215,47.852,314.941
1674564090.701,-199.219,-2.930,-302.734,-17.578,95.703
1674564090.704,-776.367,-8.789,-345.215,-80.078,-213.867
1674564090.708,100.586,-7.812,-338.379,-8.789,-67.871
1674564090.712,456.055,-5.859,-354.980,23.438,23.438
1674564090.716,507.812,-6.836,-130.371,34.180,-75.195
1674564090.720,-76.172,-2.441,-203.613,-13.672,-166.016
1674564090.724,-853.516,2.441,-566.406,-76.172,-31.250
1674564090.728,-79.102,2.930,-459.473,-17.578,89.355
1674564090.731,419.434,2.441,-180.664,5.859,-3.906
1674564090.735,472.168,4.395,-75.684,24.414,28.320
1674564090.739,5.371,5.371,-378.418,6.836,257.324
1674564090.743,-883.301,3.906,-617.676,-71.777,320.312
1674564090.747,-226.562,6.348,-253.906,-41.504,-34.668
1674564090.768,411.133,-1.953,-61.035,1.953,-120.605
1674564090.772,505.859,-8.789,-163.574,26.367,55.664
1674564090.776,170.898,-4.883,-270.996,7.812,23.926
1674564090.780,-707.031,0.488,-382.812,-81.055,-192.383
1674564090.784,-275.391,8.789,-332.031,-57.129,-223.145
1674564090.788,391.602,9.277,-428.711,21.484,157.227
1674564090.792,576.660,5.859,-356.445,47.363,302.734
1674564090.795,305.664,1.953,-26.855,11.719,-56.641
1674564090.799,-534.180,-2.441,-289.551,-49.805,-116.699
1674564090.803,-312.988,2.930,-411.133,-41.504,-11.719
1674564090.807,323.730,0.000,-192.383,-5.371,-90.332
1674564090.811,604.492,-7.324,44.434,30.762,-132.812
1674564090.811,427.734,6.836,-143.555,41.504,-63.965
1674564090.815,-558.594,17.578,-516.602,-28.809,-95.215
1674564090.819,-471.680,5.371,-327.637,-44.434,-207.031
1674564090.823,316.895,2.930,-218.262,9.766,-157.227
1674564090.827,530.762,-2.441,-222.656,45.898,2.441
1674564090.831,490.234,0.488,-245.605,64.941,99.609
1674564090.835,-439.453,6.348,-409.180,-12.207,35.645
1674564090.838,-552.246,-5.859,-401.855,-51.758,-60.547
1674564090.842,284.668,-0.977,-383.789,23.438,117.188
1674564090.846,511.230,1.465,-585.938,69.824,521.973
1674564090.850,550.781,0.000,-323.242,61.523,327.637
1674564090.854,-271.973,7.812,-255.371,-22.949,-88.379
1674564090.854,-673.340,4.883,-424.805,-61.035,-117.188
1674564090.858,170.410,-0.488,-205.566,6.836,-88.867
1674564090.862,497.559,-1.465,-46.875,26.367,-62.012
1674564090.866,546.875,-5.859,3.418,32.227,-50.293
1674564090.870,-143.555,-5.371,-293.457,-2.441,-93.262
1674564090.874,-762.207,-4.395,-500.977,-47.363,-67.383
1674564090.878,48.340,-2.441,-317.871,-2.441,39.551
1674564090.881,470.703,-2.930,-235.352,-5.371,-1.953
1674564090.885,488.770,-5.859,-436.035,11.230,280.762
1674564090.889,-39.062,-5.859,-451.660,-8.789,290.039
1674564090.893,-804.199,-10.254,-354.004,-105.469,-156.738
1674564090.897,-145.508,-14.160,-398.926,-63.477,-35.156
1674564090.899,445.801,-17.578,-281.250,-1.953,14.160
1674564090.903,548.340,-9.766,4.883,12.695,-62.500
1674564090.907,104.004,-4.395,-70.312,-15.625,-38.086
1674564090.911,-774.902,-12.207,-423.340,-83.008,-101.562
1674564090.915,-161.621,-5.859,-322.266,-46.875,-75.684
1674564090.919,456.055,2.441,-263.184,8.301,-34.668
1674564090.923,521.973,3.906,-261.719,33.203,-5.859
1674564090.926,169.434,3.906,-439.941,18.555,108.398
1674564090.930,-780.762,-2.930,-672.363,-62.988,187.012
1674564090.934,-323.242,3.906,-384.766,-56.641,-11.230
1674564090.938,391.113,4.883,-232.910,-9.766,-220.215
1674564090.942,510.742,-8.301,-438.965,29.297,127.441
1674564090.948,265.625,-12.695,-458.984,27.832,342.285
1674564090.952,-694.824,-11.719,-382.324,-80.078,-130.859
1674564090.956,-434.570,-10.742,-414.062,-76.660,-242.676
1674564090.960,349.609,-4.395,-335.938,-13.184,-115.723
1674564090.964,516.113,-3.418,-293.945,2.441,-136.719
1674564090.968,356.445,-2.441,-360.352,6.836,-108.887
1674564090.972,-575.684,0.000,-500.000,-64.453,-65.430
1674564090.975,-516.602,-5.859,-551.270,-58.105,206.055
1674564090.979,284.180,-3.418,-394.531,-4.883,211.914
1674564090.983,531.738,4.395,-202.148,-3.906,-109.863
1674564090.987,469.238,-0.488,-289.062,17.090,-49.316
1674564090.991,-407.715,-9.766,-465.820,-46.875,-2.930
1674564090.989,-585.449,-8.789,-383.789,-87.891,-95.703
1674564090.993,176.270,0.000,-279.785,-33.203,-101.562
1674564090.997,477.539,7.812,-307.617,8.789,12.207
1674564091.001,482.422,4.883,-293.457,25.391,50.293
1674564091.005,-370.605,-1.953,-397.949,-44.922,-52.246
1674564091.009,-730.469,0.977,-496.094,-78.125,-111.816
1674564091.013,141.602,-3.418,-495.117,-0.488,109.375
1674564091.016,388.672,-6.836,-529.297,29.785,397.949
1674564091.020,443.848,-7.812,-336.914,33.691,230.957
1674564091.024,-279.297,-3.418,-429.688,-23.438,-41.992
1674564091.028,-891.602,-2.441,-608.398,-76.660,31.738
1674564091.032,-15.625,-5.859,-439.941,-18.066,77.637
1674564091.033,361.328,-8.301,-253.906,4.883,-54.688
1674564091.037,406.250,-6.836,-264.648,34.668,38.574
1674564091.041,-179.688,-5.859,-395.996,2.930,62.012
1674564091.045,-981.445,-5.371,-475.098,-73.730,-82.031
1674564091.049,-212.402,-1.465,-363.281,-19.043,-76.660
1674564091.053,282.227,-1.465,-397.461,21.973,4.395
1674564091.057,334.473,-7.324,-440.430,48.828,252.930
1674564091.060,-73.730,-10.742,-418.457,20.996,253.906
1674564091.064,-941.406,-11.719,-446.777,-66.406,-62.500
1674564091.068,-317.871,-2.441,-449.219,-16.602,-7.324
1674564091.072,337.891,5.859,-417.480,36.133,179.688
1674564091.076,459.961,1.465,-232.910,45.898,87.402
1674564091.079,132.812,-4.395,-252.441,29.297,-9.277
1674564091.083,-800.293,-0.977,-518.066,-44.434,-32.227
1674564091.087,-342.773,3.418,-472.656,-20.508,-85.449
1674564091.091,392.578,-8.301,-273.438,15.625,-75.195
1674564091.095,551.758,-7.324,-233.887,35.156,-109.863
1674564091.099,305.176,11.230,-432.617,44.922,132.812
1674564091.103,-654.785,10.742,-615.723,-45.410,328.613
