Timestamp,TP9,AF7,AF8,TP10,Marker,Marker_timestamp
1678447609.239125,-15.625,-17.08984375,-28.3203125,-1.46484375,n/a,
1678447609.2430313,-19.53125,-32.2265625,-20.99609375,-7.8125,n/a,
1678447609.2469375,-32.71484375,-37.109375,-20.5078125,-41.015625,n/a,
1678447609.2508438,-28.3203125,-37.109375,-26.3671875,-28.3203125,n/a,
1678447609.25475,-21.484375,-46.875,-27.83203125,-7.8125,n/a,
1678447609.2586563,-16.11328125,-41.9921875,-29.296875,-4.39453125,n/a,
1678447609.2625625,-18.06640625,-32.2265625,-34.66796875,-0.9765625,n/a,
1678447609.2664688,-37.109375,-12.6953125,-32.71484375,-24.90234375,n/a,
1678447609.270375,-31.25,-6.8359375,-37.59765625,-32.2265625,n/a,
1678447609.2742813,-8.7890625,-21.97265625,-44.43359375,-14.6484375,n/a,
1678447609.2781875,-7.32421875,-19.53125,-33.69140625,3.41796875,n/a,
1678447609.2820938,-16.11328125,-23.92578125,-21.97265625,11.71875,n/a,
1678447609.284125,-45.41015625,-29.78515625,-15.625,-35.64453125,n/a,
1678447609.2880313,-43.45703125,-27.34375,-18.06640625,-40.0390625,n/a,
1678447609.2919376,-13.671875,-25.390625,-24.90234375,-7.32421875,n/a,
1678447609.2958438,-15.13671875,-40.52734375,-25.87890625,-7.32421875,n/a,
1678447609.29975,-23.4375,-56.15234375,-27.83203125,-4.8828125,n/a,
1678447609.3036563,-34.1796875,-31.25,-32.71484375,-28.80859375,n/a,
1678447609.3075626,-26.85546875,-7.32421875,-29.78515625,-31.73828125,n/a,
1678447609.3114688,-12.20703125,-28.3203125,-27.83203125,-16.11328125,n/a,
1678447609.315375,-16.6015625,-29.296875,-28.3203125,-20.99609375,n/a,
1678447609.3192813,-16.11328125,-15.625,-31.25,-13.18359375,n/a,
1678447609.3231876,-34.1796875,-16.11328125,-41.9921875,-36.62109375,n/a,
1678447609.3270938,-38.0859375,-17.08984375,-34.66796875,-50.78125,n/a,
1678447609.345125,-22.94921875,-35.64453125,-21.484375,-28.3203125,n/a,
1678447609.3490312,-18.5546875,-48.33984375,-30.2734375,-18.5546875,n/a,
1678447609.3529375,-17.578125,-44.921875,-38.0859375,-15.625,n/a,
1678447609.3568437,-35.64453125,-49.8046875,-34.66796875,-41.50390625,n/a,
1678447609.36075,-46.38671875,-63.96484375,-36.62109375,-55.6640625,n/a,
1678447609.3646562,-26.85546875,-39.55078125,-37.59765625,-23.92578125,n/a,
1678447609.3685625,-16.6015625,-12.20703125,-36.1328125,-5.859375,n/a,
1678447609.3724687,-23.92578125,-10.7421875,-43.9453125,-7.32421875,n/a,
1678447609.376375,-42.48046875,-18.06640625,-34.1796875,-35.15625,n/a,
1678447609.3802812,-43.45703125,-22.94921875,-23.4375,-49.31640625,n/a,
1678447609.3841875,-34.1796875,-36.1328125,-32.2265625,-38.0859375,n/a,
1678447609.3880937,-33.203125,-41.50390625,-38.57421875,-34.1796875,n/a,
1678447609.389125,-28.80859375,-36.1328125,-38.57421875,-16.6015625,n/a,
1678447609.3930314,-34.1796875,-45.41015625,-25.87890625,-19.04296875,n/a,
1678447609.3969376,-46.38671875,-33.69140625,-26.85546875,-42.96875,n/a,
1678447609.4008439,-35.64453125,-15.625,-35.64453125,-32.2265625,n/a,
1678447609.40475,-22.94921875,-24.90234375,-32.2265625,-17.08984375,n/a,
1678447609.4086564,-15.13671875,-24.90234375,-24.90234375,-0.48828125,n/a,
1678447609.4125626,-22.4609375,-16.6015625,-29.78515625,-9.765625,n/a,
1678447609.4164689,-41.50390625,-18.5546875,-28.80859375,-52.734375,n/a,
1678447609.420375,-33.69140625,-34.1796875,-29.78515625,-42.96875,n/a,
1678447609.4242814,-11.71875,-35.15625,-30.2734375,-4.8828125,n/a,
1678447609.4281876,-12.6953125,-28.80859375,-31.25,2.44140625,n/a,
1678447609.4320939,-26.3671875,-41.9921875,-40.52734375,-19.04296875,n/a,
1678447609.434125,-36.1328125,-46.875,-30.2734375,-41.9921875,n/a,
1678447609.4380312,-31.25,-53.22265625,-25.390625,-36.1328125,n/a,
1678447609.4419374,-15.13671875,-41.9921875,-32.2265625,-17.08984375,n/a,
1678447609.4458437,-2.44140625,-32.71484375,-26.85546875,-0.9765625,n/a,
1678447609.44975,-13.18359375,-38.0859375,-23.92578125,-7.32421875,n/a,
1678447609.4536562,-35.15625,-37.109375,-30.76171875,-41.9921875,n/a,
1678447609.4575624,-21.484375,-37.59765625,-32.2265625,-39.0625,n/a,
1678447609.4614687,-7.8125,-28.3203125,-29.78515625,-16.6015625,n/a,
1678447609.465375,-4.8828125,-18.06640625,-35.64453125,1.46484375,n/a,
1678447609.4692812,4.39453125,-9.27734375,-26.3671875,29.78515625,n/a,
1678447609.4731874,-26.3671875,-15.13671875,-22.94921875,-14.6484375,n/a,
1678447609.4770937,-30.76171875,-31.25,-30.2734375,-36.62109375,n/a,
1678447609.479125,-6.34765625,-41.015625,-33.203125,-10.7421875,n/a,
1678447609.4830313,-14.6484375,-27.83203125,-40.0390625,-12.20703125,n/a,
1678447609.4869375,-20.99609375,-26.3671875,-33.203125,-14.16015625,n/a,
1678447609.4908438,-32.2265625,-30.2734375,-21.484375,-31.25,n/a,
1678447609.49475,-30.76171875,-20.01953125,-16.6015625,-32.2265625,n/a,
1678447609.4986563,-13.18359375,-23.4375,-12.6953125,-5.37109375,n/a,
1678447609.5025625,-14.6484375,-24.4140625,-9.765625,0.48828125,n/a,
1678447609.5064688,-22.4609375,-33.69140625,-20.01953125,8.30078125,n/a,
1678447609.510375,-31.25,-39.0625,-28.3203125,-8.30078125,n/a,
1678447609.5142813,-35.64453125,-23.4375,-37.109375,-45.41015625,n/a,
1678447609.5181875,-16.6015625,-17.08984375,-35.15625,-28.80859375,n/a,
1678447609.5220938,1.46484375,-27.34375,-30.2734375,-4.8828125,n/a,
1678447609.524125,-2.9296875,-29.78515625,-39.55078125,4.8828125,n/a,
1678447609.5280313,-21.484375,-20.99609375,-35.64453125,-26.85546875,n/a,
1678447609.5319376,-29.296875,-26.3671875,-30.2734375,-48.828125,n/a,
1678447609.5358438,-14.6484375,-34.66796875,-30.76171875,-26.85546875,n/a,
1678447609.53975,-10.7421875,-39.0625,-34.1796875,-18.06640625,n/a,
1678447609.5436563,-13.671875,-43.45703125,-41.9921875,-11.23046875,n/a,
1678447609.5475626,-27.34375,-28.80859375,-46.875,-39.0625,n/a,
1678447609.5514688,-40.52734375,-15.13671875,-42.48046875,-60.546875,n/a,
1678447609.555375,-18.06640625,-20.99609375,-45.8984375,-26.85546875,n/a,
1678447609.5592813,-9.765625,-40.0390625,-44.43359375,-21.97265625,n/a,
1678447609.5631876,-17.08984375,-53.7109375,-26.3671875,-21.484375,n/a,
1678447609.5670938,-31.73828125,-48.828125,-27.83203125,-24.4140625,n/a,
1678447609.570125,-39.55078125,-41.50390625,-31.73828125,-43.45703125,n/a,
1678447609.5740314,-24.4140625,-36.62109375,-16.11328125,-33.203125,n/a,
1678447609.5779376,-16.6015625,-34.66796875,-11.23046875,-10.7421875,n/a,
1678447609.5818439,-15.13671875,-33.69140625,-18.06640625,11.71875,n/a,
1678447609.58575,-27.83203125,-27.83203125,-24.90234375,-8.7890625,n/a,
1678447609.5896564,-41.9921875,-24.4140625,-22.94921875,-46.38671875,n/a,
1678447609.5935626,-29.296875,-28.3203125,-30.76171875,-29.78515625,n/a,
1678447609.5974689,-17.578125,-32.71484375,-37.59765625,-6.34765625,n/a,
1678447609.601375,-21.484375,-40.52734375,-38.57421875,-5.859375,n/a,
1678447609.6052814,-23.92578125,-37.59765625,-29.78515625,-14.16015625,n/a,
1678447609.6091876,-28.3203125,-43.9453125,-23.4375,-40.0390625,n/a,
1678447609.6130939,-17.578125,-35.64453125,-27.83203125,-31.25,n/a,
1678447609.614125,-3.41796875,-20.01953125,-23.92578125,-7.8125,n/a,
1678447609.6180313,-12.20703125,-32.2265625,-24.90234375,-3.90625,n/a,
1678447609.6219375,-25.390625,-27.34375,-24.90234375,-10.7421875,n/a,
1678447609.6258438,-37.109375,-20.99609375,-21.484375,-46.38671875,n/a,
1678447609.62975,-23.4375,-31.73828125,-11.71875,-41.015625,n/a,
1678447609.6336563,-6.34765625,-29.78515625,-12.20703125,-20.01953125,n/a,
1678447609.6375625,0.9765625,-16.11328125,-18.06640625,-4.39453125,n/a,
1678447609.6414688,4.39453125,-23.4375,-20.99609375,9.765625,n/a,
1678447609.645375,-29.78515625,-47.36328125,-29.78515625,-43.45703125,n/a,
1678447609.6492813,-36.1328125,-47.8515625,-35.64453125,-53.7109375,n/a,
1678447609.6531875,-13.671875,-32.2265625,-37.59765625,-20.01953125,n/a,
1678447609.6570938,-18.5546875,-24.90234375,-27.34375,-19.53125,n/a,
1678447609.659125,-19.53125,-27.34375,-31.25,-20.99609375,n/a,
1678447609.6630313,-32.2265625,-22.4609375,-35.64453125,-52.24609375,n/a,
1678447609.6669376,-35.15625,-17.578125,-32.2265625,-58.59375,n/a,
1678447609.6708438,-17.08984375,-27.34375,-41.9921875,-33.69140625,n/a,
1678447609.67475,-18.5546875,-36.1328125,-42.96875,-30.76171875,n/a,
1678447609.6786563,-16.11328125,-23.92578125,-33.203125,-18.06640625,n/a,
1678447609.6825626,-23.92578125,-20.99609375,-25.87890625,-26.3671875,n/a,
1678447609.6864688,-39.55078125,-29.78515625,-24.90234375,-48.33984375,n/a,
1678447609.690375,-25.390625,-32.71484375,-38.0859375,-37.109375,n/a,
1678447609.6942813,-9.765625,-39.0625,-40.52734375,-14.6484375,n/a,
1678447609.6981876,-21.484375,-39.55078125,-31.25,0.0,n/a,
1678447609.7020938,-47.8515625,-27.83203125,-34.66796875,-36.62109375,n/a,
1678447609.704125,-54.6875,-20.01953125,-32.71484375,-62.01171875,n/a,
1678447609.7080312,-39.55078125,-23.4375,-29.78515625,-36.62109375,n/a,
1678447609.7119374,-36.1328125,-31.25,-34.1796875,-22.94921875,n/a,
1678447609.7158437,-38.57421875,-37.59765625,-38.57421875,-8.30078125,n/a,
1678447609.71975,-54.19921875,-39.55078125,-39.55078125,-33.203125,n/a,
1678447609.7236562,-52.734375,-30.76171875,-33.203125,-49.8046875,n/a,
1678447609.7275624,-31.73828125,-29.296875,-30.2734375,-14.16015625,n/a,
1678447609.7314687,-28.80859375,-40.0390625,-39.0625,-9.765625,n/a,
1678447609.735375,-20.01953125,-41.50390625,-39.0625,-5.859375,n/a,
1678447609.7392812,-20.5078125,-26.85546875,-24.4140625,-11.23046875,n/a,
1678447609.7431874,-38.57421875,-20.99609375,-19.53125,-40.0390625,n/a,
1678447609.7470937,-28.80859375,-32.2265625,-24.4140625,-31.25,n/a,
1678447609.764125,-17.08984375,-30.76171875,-29.296875,-16.6015625,n/a,
1678447609.7680314,-20.01953125,-17.08984375,-26.85546875,-0.9765625,n/a,
1678447609.7719376,-33.203125,-13.18359375,-28.80859375,-17.08984375,n/a,
1678447609.7758439,-48.33984375,-22.4609375,-29.78515625,-49.8046875,n/a,
1678447609.77975,-33.203125,-36.1328125,-30.76171875,-31.25,n/a,
1678447609.7836564,-19.04296875,-38.0859375,-45.41015625,-10.7421875,n/a,
1678447609.7875626,-18.06640625,-34.1796875,-37.109375,-4.8828125,n/a,
1678447609.7914689,-32.71484375,-39.55078125,-21.97265625,-17.578125,n/a,
1678447609.795375,-43.9453125,-29.296875,-21.484375,-42.48046875,n/a,
1678447609.7992814,-27.34375,-18.06640625,-11.71875,-23.4375,n/a,
1678447609.8031876,-28.80859375,-34.1796875,-25.390625,-11.71875,n/a,
1678447609.8070939,-32.2265625,-33.69140625,-41.9921875,-13.671875,n/a,
1678447609.809125,-25.390625,-21.97265625,-37.59765625,-2.9296875,n/a,
1678447609.8130312,-40.0390625,-24.90234375,-35.15625,-31.73828125,n/a,
1678447609.8169374,-33.203125,-22.4609375,-36.62109375,-36.1328125,n/a,
1678447609.8208437,-12.20703125,-38.0859375,-27.83203125,-20.5078125,n/a,
1678447609.82475,-13.18359375,-50.29296875,-24.90234375,-13.18359375,n/a,
1678447609.8286562,-17.08984375,-34.1796875,-34.66796875,-2.44140625,n/a,
1678447609.8325624,-38.0859375,-24.4140625,-30.76171875,-35.15625,n/a,
1678447609.8364687,-41.015625,-34.1796875,-32.71484375,-47.36328125,n/a,
1678447609.840375,-19.04296875,-32.71484375,-34.66796875,-18.06640625,n/a,
1678447609.8442812,-9.765625,-32.2265625,-20.5078125,8.30078125,n/a,
1678447609.8481874,-22.4609375,-51.7578125,-25.87890625,-1.953125,n/a,
1678447609.8520937,-45.41015625,-50.29296875,-33.203125,-43.9453125,n/a,
1678447609.854125,-42.96875,-25.390625,-35.15625,-45.41015625,n/a,
1678447609.8580313,-17.578125,-23.4375,-34.66796875,-15.13671875,n/a,
1678447609.8619375,-11.71875,-40.52734375,-28.80859375,-0.9765625,n/a,
1678447609.8658438,-17.08984375,-50.29296875,-27.34375,3.90625,n/a,
1678447609.86975,-26.3671875,-45.41015625,-25.390625,-19.04296875,n/a,
1678447609.8736563,-32.71484375,-38.0859375,-25.390625,-34.66796875,n/a,
1678447609.8775625,-18.5546875,-35.64453125,-33.203125,-17.08984375,n/a,
1678447609.8814688,-9.765625,-31.25,-42.48046875,-4.8828125,n/a,
1678447609.885375,-8.30078125,-26.3671875,-34.66796875,22.94921875,n/a,
1678447609.8892813,-33.203125,-28.80859375,-29.296875,-3.90625,n/a,
1678447609.8931875,-47.36328125,-43.9453125,-38.0859375,-39.0625,n/a,
1678447609.8970938,-23.4375,-51.7578125,-38.57421875,-17.578125,n/a,
1678447609.900125,-16.11328125,-39.0625,-35.64453125,-9.765625,n/a,
1678447609.9040313,-16.11328125,-32.2265625,-28.80859375,3.90625,n/a,
1678447609.9079375,-32.2265625,-30.76171875,-15.625,-13.18359375,n/a,
1678447609.9118438,-37.109375,-21.97265625,-16.6015625,-38.57421875,n/a,
1678447609.91575,-20.5078125,-17.578125,-29.78515625,-20.99609375,n/a,
1678447609.9196563,-17.08984375,-26.3671875,-29.78515625,-10.7421875,n/a,
1678447609.9235625,-20.5078125,-38.0859375,-28.3203125,-4.39453125,n/a,
1678447609.9274688,-37.109375,-37.59765625,-37.109375,-19.04296875,n/a,
1678447609.931375,-40.52734375,-30.76171875,-40.52734375,-33.69140625,n/a,
1678447609.9352813,-21.97265625,-25.87890625,-29.78515625,-22.94921875,n/a,
1678447609.9391875,-13.671875,-22.94921875,-27.34375,-13.18359375,n/a,
1678447609.9430938,-7.32421875,-20.99609375,-30.76171875,3.41796875,n/a,
1678447609.945125,-11.71875,-21.97265625,-25.87890625,-1.953125,n/a,
1678447609.9490314,-31.25,-16.6015625,-28.3203125,-36.62109375,n/a,
1678447609.9529376,-23.92578125,-16.6015625,-33.69140625,-31.73828125,n/a,
1678447609.9568439,-14.16015625,-30.76171875,-43.45703125,-19.04296875,n/a,
1678447609.96075,-17.578125,-38.0859375,-46.875,-11.71875,n/a,
1678447609.9646564,-19.04296875,-32.71484375,-32.2265625,-16.11328125,n/a,
1678447609.9685626,-29.78515625,-21.97265625,-28.3203125,-47.36328125,n/a,
1678447609.9724689,-19.53125,-18.06640625,-22.4609375,-29.78515625,n/a,
1678447609.976375,-16.11328125,-19.53125,-17.08984375,-15.13671875,n/a,
1678447609.9802814,-16.11328125,-20.99609375,-28.80859375,-19.04296875,n/a,
1678447609.9841876,-16.6015625,-22.4609375,-37.109375,-13.671875,n/a,
1678447609.9880939,-38.0859375,-28.80859375,-25.87890625,-42.96875,n/a,
1678447609.990125,-32.71484375,-45.8984375,-17.08984375,-43.45703125,n/a,
1678447609.9940312,-15.13671875,-54.19921875,-18.06640625,-24.90234375,n/a,
1678447609.9979374,-16.11328125,-35.15625,-23.92578125,-14.6484375,n/a,
1678447610.0018437,-19.53125,-20.01953125,-31.73828125,-4.8828125,n/a,
1678447610.00575,-37.109375,-18.5546875,-34.66796875,-42.96875,n/a,
1678447610.0096562,-31.25,-22.94921875,-34.1796875,-44.43359375,n/a,
1678447610.0135624,-14.16015625,-26.85546875,-27.83203125,-9.765625,n/a,
1678447610.0174687,-6.34765625,-22.94921875,-22.94921875,10.25390625,n/a,
1678447610.021375,-11.71875,-27.83203125,-33.203125,2.44140625,n/a,
1678447610.0252812,-53.7109375,-36.62109375,-27.83203125,-61.03515625,n/a,
1678447610.0291874,-55.17578125,-39.55078125,-22.4609375,-69.3359375,n/a,
1678447610.0330937,-25.87890625,-30.76171875,-28.80859375,-30.2734375,n/a,
1678447610.034125,-31.25,-28.80859375,-39.55078125,-40.52734375,n/a,
1678447610.0380313,-11.23046875,-27.83203125,-36.1328125,-12.6953125,n/a,
1678447610.0419376,-23.4375,-27.34375,-18.06640625,-25.87890625,n/a,
1678447610.0458438,-33.69140625,-27.34375,-30.76171875,-51.26953125,n/a,
1678447610.04975,1.953125,-26.3671875,-37.59765625,-5.859375,n/a,
1678447610.0536563,-1.46484375,-37.59765625,-24.90234375,1.953125,n/a,
1678447610.0575626,-5.37109375,-37.109375,-20.99609375,14.16015625,n/a,
1678447610.0614688,-21.484375,-31.73828125,-22.4609375,-0.9765625,n/a,
1678447610.065375,-43.9453125,-53.7109375,-36.62109375,-43.45703125,n/a,
1678447610.0692813,-19.53125,-56.15234375,-37.109375,-23.4375,n/a,
1678447610.0731876,-5.37109375,-38.0859375,-34.1796875,-3.90625,n/a,
1678447610.0770938,-10.25390625,-29.296875,-29.296875,4.8828125,n/a,
1678447610.079125,-23.92578125,-29.78515625,-17.578125,-14.16015625,n/a,
1678447610.0830312,-28.80859375,-24.90234375,-15.625,-32.71484375,n/a,
1678447610.0869374,-18.5546875,-34.66796875,-14.6484375,-11.71875,n/a,
1678447610.0908437,-15.13671875,-35.64453125,-13.671875,0.0,n/a,
1678447610.09475,-4.8828125,-32.71484375,-20.5078125,4.39453125,n/a,
1678447610.0986562,-12.20703125,-42.96875,-15.13671875,-11.71875,n/a,
1678447610.1025624,-25.87890625,-50.78125,-9.765625,-37.109375,n/a,
1678447610.1064687,-16.11328125,-36.62109375,-17.578125,-26.3671875,n/a,
1678447610.110375,-12.20703125,-18.5546875,-30.76171875,-20.99609375,n/a,
1678447610.1142812,-13.671875,-18.5546875,-36.62109375,-5.37109375,n/a,
1678447610.1181874,-22.94921875,-21.484375,-25.390625,-3.90625,n/a,
1678447610.1220937,-43.9453125,-34.1796875,-31.73828125,-56.15234375,n/a,
1678447610.139125,-33.69140625,-45.8984375,-35.64453125,-51.26953125,n/a,
1678447610.1430314,-21.484375,-49.31640625,-26.3671875,-29.78515625,n/a,
1678447610.1469376,-25.390625,-44.43359375,-30.2734375,-18.06640625,n/a,
1678447610.1508439,-35.64453125,-35.15625,-27.34375,-25.390625,n/a,
1678447610.15475,-38.0859375,-22.94921875,-24.90234375,-45.8984375,n/a,
1678447610.1586564,-21.97265625,-17.578125,-29.78515625,-26.85546875,n/a,
1678447610.1625626,-5.859375,-22.4609375,-29.78515625,-1.46484375,n/a,
1678447610.1664689,1.46484375,-25.87890625,-28.3203125,7.32421875,n/a,
1678447610.170375,-9.765625,-23.92578125,-32.2265625,0.48828125,n/a,
1678447610.1742814,-27.34375,-31.25,-29.296875,-20.5078125,n/a,
1678447610.1781876,-24.4140625,-49.31640625,-30.2734375,-22.4609375,n/a,
1678447610.1820939,-16.6015625,-43.9453125,-41.50390625,-16.6015625,n/a,
1678447610.184125,-10.7421875,-35.64453125,-25.87890625,-1.46484375,n/a,
1678447610.1880312,-6.8359375,-26.85546875,-14.16015625,10.25390625,n/a,
1678447610.1919374,-27.83203125,-30.76171875,-22.4609375,-29.78515625,n/a,
1678447610.1958437,-23.4375,-38.57421875,-23.92578125,-31.25,n/a,
1678447610.19975,-2.44140625,-39.0625,-22.4609375,-2.44140625,n/a,
1678447610.2036562,3.41796875,-32.2265625,-20.99609375,4.39453125,n/a,
1678447610.2075624,-8.7890625,-40.0390625,-29.296875,5.37109375,n/a,
1678447610.2114687,-31.73828125,-42.96875,-36.62109375,-29.296875,n/a,
1678447610.215375,-21.484375,-18.5546875,-30.76171875,-29.296875,n/a,
1678447610.2192812,0.9765625,-11.23046875,-23.92578125,17.08984375,n/a,
1678447610.2231874,9.27734375,-17.578125,-19.53125,16.11328125,n/a,
1678447610.2270937,2.9296875,-17.578125,-19.53125,-1.953125,n/a,
1678447610.229125,-28.3203125,-20.01953125,-20.99609375,-35.64453125,n/a,
1678447610.2330313,-27.34375,-23.4375,-24.90234375,-39.55078125,n/a,
1678447610.2369375,-8.30078125,-22.4609375,-29.296875,-17.08984375,n/a,
1678447610.2408438,-6.34765625,-21.97265625,-31.73828125,-1.46484375,n/a,
1678447610.24475,0.9765625,-40.52734375,-32.71484375,21.97265625,n/a,
1678447610.2486563,-20.01953125,-45.41015625,-31.25,-11.71875,n/a,
1678447610.2525625,-33.203125,-39.55078125,-36.1328125,-37.109375,n/a,
1678447610.2564688,-17.578125,-44.43359375,-41.50390625,-15.13671875,n/a,
1678447610.260375,-12.6953125,-41.50390625,-37.109375,-3.41796875,n/a,
1678447610.2642813,-15.625,-44.43359375,-36.62109375,-1.46484375,n/a,
1678447610.2681875,-25.390625,-42.48046875,-37.59765625,-29.78515625,n/a,
1678447610.2720938,-36.1328125,-19.04296875,-35.15625,-47.36328125,n/a,
1678447610.274125,-26.85546875,-23.92578125,-31.25,-23.4375,n/a,
1678447610.2780313,-11.23046875,-45.41015625,-37.109375,-14.16015625,n/a,
1678447610.2819376,-9.27734375,-32.2265625,-35.15625,-4.8828125,n/a,
1678447610.2858438,-20.5078125,-25.390625,-23.4375,-11.71875,n/a,
1678447610.28975,-24.4140625,-27.34375,-23.92578125,-32.71484375,n/a,
1678447610.2936563,-16.6015625,-23.92578125,-21.484375,-26.85546875,n/a,
1678447610.2975626,-3.90625,-27.34375,-19.53125,-4.8828125,n/a,
1678447610.3014688,4.8828125,-33.69140625,-24.90234375,16.6015625,n/a,
1678447610.305375,-5.37109375,-27.83203125,-25.390625,15.13671875,n/a,
1678447610.3092813,-32.2265625,-19.04296875,-33.203125,-31.25,n/a,
1678447610.3131876,-23.4375,-19.04296875,-28.3203125,-33.203125,n/a,
1678447610.3170938,-4.39453125,-33.203125,-21.484375,-11.23046875,n/a,
1678447610.319125,-7.8125,-35.64453125,-30.76171875,-5.37109375,n/a,
1678447610.3230312,-15.625,-24.90234375,-33.69140625,-10.25390625,n/a,
1678447610.3269374,-29.78515625,-23.92578125,-24.4140625,-40.52734375,n/a,
1678447610.3308437,-22.4609375,-25.390625,-27.83203125,-32.2265625,n/a,
1678447610.33475,-10.7421875,-31.73828125,-34.1796875,-13.18359375,n/a,
1678447610.3386562,-7.32421875,-31.25,-26.85546875,-7.32421875,n/a,
1678447610.3425624,-4.8828125,-23.92578125,-23.92578125,-1.46484375,n/a,
1678447610.3464687,-26.3671875,-15.13671875,-32.2265625,-30.2734375,n/a,
1678447610.350375,-32.71484375,-24.90234375,-41.50390625,-38.57421875,n/a,
1678447610.3542812,-18.06640625,-36.1328125,-31.73828125,-23.4375,n/a,
1678447610.3581874,-11.23046875,-31.25,-15.625,-5.37109375,n/a,
1678447610.3620937,-17.578125,-34.1796875,-17.08984375,-2.9296875,n/a,
1678447610.379125,-46.875,-45.8984375,-24.90234375,-55.17578125,n/a,
1678447610.3830314,-38.0859375,-43.45703125,-29.78515625,-56.15234375,n/a,
1678447610.3869376,-14.6484375,-27.83203125,-31.25,-25.390625,n/a,
1678447610.3908439,-23.92578125,-23.4375,-25.390625,-26.85546875,n/a,
1678447610.39475,-25.87890625,-19.04296875,-23.92578125,-21.97265625,n/a,
1678447610.3986564,-33.69140625,-18.5546875,-24.90234375,-42.96875,n/a,
1678447610.4025626,-31.73828125,-24.4140625,-19.53125,-42.48046875,n/a,
1678447610.4064689,-10.7421875,-26.3671875,-18.5546875,-2.9296875,n/a,
1678447610.410375,-11.23046875,-35.15625,-25.390625,-4.8828125,n/a,
1678447610.4142814,-19.53125,-32.2265625,-25.87890625,-5.37109375,n/a,
1678447610.4181876,-34.1796875,-16.11328125,-24.90234375,-30.2734375,n/a,
1678447610.4220939,-38.57421875,-21.97265625,-27.83203125,-53.22265625,n/a,
1678447610.424125,-26.3671875,-38.57421875,-25.390625,-35.64453125,n/a,
1678447610.4280312,-22.4609375,-45.41015625,-31.25,-19.04296875,n/a,
1678447610.4319375,-19.04296875,-30.2734375,-36.1328125,-5.859375,n/a,
1678447610.4358437,-26.85546875,-15.13671875,-28.3203125,-29.296875,n/a,
1678447610.43975,-27.34375,-17.578125,-20.01953125,-48.828125,n/a,
1678447610.4436562,-17.578125,-31.73828125,-22.4609375,-25.87890625,n/a,
1678447610.4475625,-17.578125,-45.8984375,-28.3203125,-9.765625,n/a,
1678447610.4514687,-9.27734375,-40.52734375,-37.109375,-4.39453125,n/a,
1678447610.455375,-18.06640625,-30.2734375,-34.1796875,-24.4140625,n/a,
1678447610.4592812,-41.50390625,-22.94921875,-20.99609375,-49.31640625,n/a,
1678447610.4631875,-24.90234375,-17.08984375,-17.578125,-16.11328125,n/a,
1678447610.4670937,-15.625,-27.34375,-27.83203125,-8.30078125,n/a,
1678447610.454125,-18.06640625,-36.62109375,-39.0625,-12.20703125,n/a,
1678447610.4580312,-17.578125,-26.3671875,-31.73828125,-13.671875,n/a,
1678447610.4619374,-21.97265625,-22.4609375,-23.4375,-34.66796875,n/a,
1678447610.4658437,-12.20703125,-55.17578125,-32.2265625,-21.484375,n/a,
1678447610.46975,-13.18359375,-59.08203125,-54.19921875,-2.9296875,n/a,
1678447610.4736562,-18.06640625,-33.69140625,-48.828125,8.30078125,n/a,
1678447610.4775624,-27.34375,-31.73828125,-27.83203125,-9.765625,n/a,
1678447610.4814687,-47.8515625,-33.203125,-33.69140625,-48.33984375,n/a,
1678447610.485375,-32.71484375,-31.25,-24.4140625,-34.66796875,n/a,
1678447610.4892812,-8.7890625,-24.4140625,-11.23046875,-6.34765625,n/a,
1678447610.4931874,-8.30078125,-19.04296875,-15.13671875,16.11328125,n/a,
1678447610.4970937,-27.83203125,-23.92578125,-24.90234375,-7.32421875,n/a,
1678447610.514125,-49.8046875,-28.3203125,-27.34375,-53.7109375,n/a,
1678447610.5180314,-33.203125,-30.76171875,-29.296875,-34.66796875,n/a,
1678447610.5219376,-17.08984375,-37.59765625,-37.59765625,-13.671875,n/a,
1678447610.5258439,-20.5078125,-25.87890625,-34.1796875,-10.25390625,n/a,
1678447610.52975,-20.01953125,-31.73828125,-27.83203125,-9.765625,n/a,
1678447610.5336564,-37.59765625,-54.6875,-36.1328125,-41.50390625,n/a,
1678447610.5375626,-32.71484375,-39.55078125,-40.0390625,-41.015625,n/a,
1678447610.5414689,-15.625,-20.5078125,-29.296875,-17.578125,n/a,
1678447610.545375,-20.99609375,-21.97265625,-22.94921875,-7.8125,n/a,
1678447610.5492814,-25.87890625,-17.578125,-14.6484375,9.27734375,n/a,
1678447610.5531876,-41.9921875,-20.5078125,-13.671875,-20.99609375,n/a,
1678447610.5570939,-37.109375,-29.78515625,-24.90234375,-34.66796875,n/a,
1678447610.559125,-20.5078125,-26.3671875,-35.64453125,-12.20703125,n/a,
1678447610.5630312,-20.01953125,-24.90234375,-35.15625,-9.27734375,n/a,
1678447610.5669374,-24.90234375,-31.25,-24.90234375,-11.71875,n/a,
1678447610.5708437,-41.015625,-28.80859375,-12.20703125,-39.0625,n/a,
1678447610.57475,-37.59765625,-30.2734375,-15.13671875,-50.29296875,n/a,
1678447610.5786562,-18.5546875,-23.92578125,-31.25,-25.87890625,n/a,
1678447610.5825624,-17.08984375,-20.01953125,-41.9921875,-16.11328125,n/a,
1678447610.5864687,-21.97265625,-35.15625,-51.7578125,-19.04296875,n/a,
1678447610.590375,-24.4140625,-26.3671875,-38.57421875,-34.1796875,n/a,
1678447610.5942812,-20.01953125,-17.08984375,-14.16015625,-23.92578125,n/a,
1678447610.5981874,-18.06640625,-31.25,-15.625,-9.27734375,n/a,
1678447610.6020937,-12.20703125,-35.15625,-23.92578125,-14.16015625,n/a,
1678447610.604125,0.0,-34.66796875,-22.4609375,-0.9765625,n/a,
1678447610.6080313,-17.08984375,-30.76171875,-25.87890625,-20.5078125,n/a,
1678447610.6119375,-31.25,-32.2265625,-34.66796875,-54.19921875,n/a,
1678447610.6158438,-13.18359375,-18.5546875,-36.62109375,-34.66796875,n/a,
1678447610.61975,-3.41796875,-19.04296875,-36.1328125,-16.6015625,n/a,
1678447610.6236563,-14.6484375,-39.55078125,-40.52734375,-20.01953125,n/a,
1678447610.6275625,-40.52734375,-35.15625,-38.57421875,-46.875,n/a,
1678447610.6314688,-43.9453125,-30.76171875,-36.62109375,-61.5234375,n/a,
1678447610.635375,-19.04296875,-27.34375,-35.15625,-22.94921875,n/a,
1678447610.6392813,-18.5546875,-26.3671875,-30.76171875,-16.6015625,n/a,
1678447610.6431875,-22.94921875,-46.875,-36.62109375,-22.4609375,n/a,
1678447610.6470938,-35.64453125,-44.43359375,-37.59765625,-35.15625,n/a,
1678447610.650125,-47.8515625,-26.85546875,-32.2265625,-54.6875,n/a,
1678447610.6540313,-31.25,-36.62109375,-29.296875,-37.59765625,n/a,
1678447610.6579375,-20.5078125,-44.921875,-31.73828125,-26.85546875,n/a,
1678447610.6618438,-18.5546875,-31.25,-34.1796875,-15.13671875,n/a,
1678447610.66575,-25.390625,-18.5546875,-33.203125,-19.53125,n/a,
1678447610.6696563,-28.80859375,-7.32421875,-33.69140625,-48.828125,n/a,
1678447610.6735625,-16.6015625,-11.71875,-28.80859375,-36.62109375,n/a,
1678447610.6774688,-10.25390625,-27.34375,-20.01953125,-13.671875,n/a,
1678447610.681375,-10.7421875,-29.296875,-24.4140625,4.39453125,n/a,
1678447610.6852813,-30.2734375,-34.1796875,-25.87890625,-20.01953125,n/a,
1678447610.6891875,-55.6640625,-35.15625,-30.76171875,-60.546875,n/a,
1678447610.6930938,-41.9921875,-30.76171875,-28.80859375,-39.0625,n/a,
1678447610.694125,-14.6484375,-26.3671875,-38.57421875,-14.16015625,n/a,
1678447610.6980312,-5.859375,-25.390625,-48.828125,-1.953125,n/a,
1678447610.7019374,-39.55078125,-28.80859375,-22.4609375,-14.6484375,n/a,
1678447610.7058437,-53.22265625,-24.90234375,-12.6953125,-41.50390625,n/a,
1678447610.70975,-33.203125,-32.2265625,-19.53125,-25.390625,n/a,
1678447610.7136562,-44.921875,-36.62109375,-25.390625,-26.85546875,n/a,
1678447610.7175624,-38.57421875,-35.64453125,-28.80859375,-20.01953125,n/a,
1678447610.7214687,-23.4375,-34.1796875,-16.11328125,6.34765625,n/a,
1678447610.725375,-50.78125,-41.015625,-18.06640625,-29.296875,n/a,
1678447610.7292812,-56.15234375,-44.43359375,-32.71484375,-50.29296875,n/a,
1678447610.7331874,-19.53125,-39.55078125,-22.94921875,-11.23046875,n/a,
1678447610.7370937,-21.97265625,-41.9921875,-20.5078125,-11.71875,n/a,
1678447610.739125,-29.78515625,-39.0625,-26.3671875,-18.5546875,n/a,
1678447610.7430313,-41.015625,-43.9453125,-21.484375,-42.96875,n/a,
1678447610.7469375,-44.43359375,-47.8515625,-19.04296875,-58.10546875,n/a,
1678447610.7508438,-23.4375,-40.52734375,-20.99609375,-27.83203125,n/a,
1678447610.75475,-18.06640625,-45.41015625,-25.87890625,-13.671875,n/a,
1678447610.7586563,-16.6015625,-35.15625,-37.59765625,-5.37109375,n/a,
1678447610.7625625,-20.01953125,-10.7421875,-31.73828125,-21.484375,n/a,
1678447610.7664688,-24.90234375,-17.578125,-16.11328125,-28.3203125,n/a,
1678447610.770375,-16.6015625,-33.203125,-20.5078125,-15.625,n/a,
1678447610.7742813,-4.39453125,-31.73828125,-23.92578125,-8.7890625,n/a,
1678447610.7781875,-1.46484375,-28.80859375,-24.4140625,2.9296875,n/a,
1678447610.7820938,-23.4375,-20.99609375,-26.85546875,-21.484375,n/a,
1678447610.784125,-25.390625,-9.765625,-20.5078125,-37.109375,n/a,
1678447610.7880313,-2.44140625,-11.23046875,-20.99609375,-2.44140625,n/a,
1678447610.7919376,4.8828125,-18.5546875,-25.390625,17.08984375,n/a,
1678447610.7958438,0.0,-31.73828125,-27.83203125,13.671875,n/a,
1678447610.79975,-31.25,-43.9453125,-28.80859375,-31.25,n/a,
1678447610.8036563,-34.66796875,-33.69140625,-26.3671875,-45.8984375,n/a,
1678447610.8075626,-7.32421875,-29.296875,-20.01953125,-8.7890625,n/a,
1678447610.8114688,-3.41796875,-34.66796875,-23.4375,-1.953125,n/a,
1678447610.815375,-5.859375,-44.43359375,-29.78515625,3.90625,n/a,
1678447610.8192813,-13.671875,-39.0625,-22.4609375,-2.9296875,n/a,
1678447610.8231876,-21.484375,-20.01953125,-20.5078125,-26.3671875,n/a,
1678447610.8270938,-18.5546875,-15.13671875,-30.2734375,-27.34375,n/a,
1678447610.830125,-15.625,-22.94921875,-33.203125,-13.671875,n/a,
1678447610.8340313,-11.71875,-25.390625,-22.94921875,2.9296875,n/a,
1678447610.8379376,-21.484375,-26.3671875,-23.4375,-12.6953125,n/a,
1678447610.8418438,-35.15625,-24.90234375,-27.34375,-44.921875,n/a,
1678447610.84575,-18.5546875,-20.5078125,-23.4375,-24.90234375,n/a,
1678447610.8496563,0.48828125,-21.484375,-12.20703125,3.41796875,n/a,
1678447610.8535626,2.9296875,-26.85546875,-17.578125,17.578125,n/a,
1678447610.8574688,-20.99609375,-44.43359375,-29.296875,-10.25390625,n/a,
1678447610.861375,-44.43359375,-42.48046875,-25.390625,-50.29296875,n/a,
1678447610.8652813,-25.390625,-29.78515625,-15.625,-27.83203125,n/a,
1678447610.8691876,-16.11328125,-25.390625,-24.90234375,-1.46484375,n/a,
1678447610.8730938,-21.97265625,-19.53125,-40.0390625,-7.32421875,n/a,
1678447610.889125,-22.94921875,-21.97265625,-23.92578125,-9.765625,n/a,
1678447610.8930314,-35.64453125,-16.6015625,-14.6484375,-32.71484375,n/a,
1678447610.8969376,-30.76171875,-15.13671875,-27.34375,-33.203125,n/a,
1678447610.9008439,-23.4375,-25.87890625,-40.52734375,-20.99609375,n/a,
1678447610.90475,-19.53125,-27.34375,-35.15625,-13.18359375,n/a,
1678447610.9086564,-15.13671875,-21.97265625,-20.5078125,5.37109375,n/a,
1678447610.9125626,-37.109375,-32.71484375,-23.4375,-32.71484375,n/a,
1678447610.9164689,-36.1328125,-40.52734375,-34.1796875,-48.828125,n/a,
1678447610.920375,-16.11328125,-36.1328125,-37.109375,-20.99609375,n/a,
1678447610.9242814,-17.08984375,-34.1796875,-28.80859375,-9.27734375,n/a,
1678447610.9281876,-21.484375,-28.80859375,-32.2265625,-12.6953125,n/a,
1678447610.9320939,-41.50390625,-31.73828125,-43.45703125,-49.31640625,n/a,
1678447610.934125,-44.43359375,-26.3671875,-47.36328125,-54.19921875,n/a,
1678447610.9380312,-22.94921875,-14.6484375,-37.59765625,-22.4609375,n/a,
1678447610.9419374,-18.06640625,-17.578125,-24.90234375,-16.11328125,n/a,
1678447610.9458437,-17.578125,-34.1796875,-26.3671875,-13.18359375,n/a,
1678447610.94975,-36.62109375,-30.76171875,-27.83203125,-36.1328125,n/a,
1678447610.9536562,-40.0390625,-30.76171875,-28.3203125,-48.828125,n/a,
1678447610.9575624,-21.484375,-34.1796875,-29.78515625,-28.80859375,n/a,
1678447610.9614687,-14.16015625,-34.1796875,-28.80859375,-13.671875,n/a,
1678447610.965375,-8.7890625,-40.0390625,-22.94921875,3.90625,n/a,
1678447610.9692812,-25.87890625,-30.2734375,-11.71875,-9.27734375,n/a,
1678447610.9731874,-41.50390625,-27.34375,-27.34375,-39.0625,n/a,
1678447610.9770937,-20.99609375,-29.78515625,-45.8984375,-30.2734375,n/a,
1678447610.979125,-7.32421875,-22.4609375,-28.80859375,-16.11328125,n/a,
1678447610.9830313,-14.6484375,-31.73828125,-29.296875,-4.39453125,n/a,
1678447610.9869375,-27.83203125,-31.25,-43.45703125,-14.16015625,n/a,
1678447610.9908438,-31.25,-20.01953125,-28.80859375,-26.3671875,n/a,
1678447610.99475,-16.6015625,-22.94921875,-24.4140625,-14.6484375,n/a,
1678447610.9986563,-18.5546875,-21.484375,-28.3203125,-22.4609375,n/a,
1678447611.0025625,-22.4609375,-16.6015625,-20.5078125,-20.01953125,n/a,
1678447611.0064688,-14.6484375,-11.23046875,-22.4609375,-20.5078125,n/a,
1678447611.010375,-18.5546875,-15.13671875,-23.92578125,-31.25,n/a,
1678447611.0142813,-20.5078125,-27.83203125,-31.25,-22.4609375,n/a,
1678447611.0181875,-16.6015625,-26.3671875,-36.62109375,-13.18359375,n/a,
1678447611.0220938,-9.765625,-24.4140625,-34.1796875,2.9296875,n/a,
1678447611.024125,-20.01953125,-29.296875,-32.71484375,-3.90625,n/a,
1678447611.0280313,-34.66796875,-39.55078125,-34.1796875,-31.25,n/a,
1678447611.0319376,-23.92578125,-48.33984375,-39.55078125,-18.06640625,n/a,
1678447611.0358438,-18.06640625,-39.0625,-40.0390625,-10.25390625,n/a,
1678447611.03975,-8.30078125,-34.1796875,-40.52734375,-3.41796875,n/a,
1678447611.0436563,-9.27734375,-29.78515625,-37.59765625,-9.765625,n/a,
1678447611.0475626,-34.66796875,-17.578125,-34.1796875,-48.828125,n/a,
1678447611.0514688,-35.64453125,-21.484375,-34.1796875,-43.9453125,n/a,
1678447611.055375,-14.6484375,-24.90234375,-39.0625,-12.20703125,n/a,
1678447611.0592813,-8.7890625,-22.94921875,-48.828125,-13.18359375,n/a,
1678447611.0631876,-16.6015625,-26.3671875,-49.8046875,-23.4375,n/a,
1678447611.0670938,-39.55078125,-35.64453125,-40.52734375,-51.26953125,n/a,
1678447611.084125,-33.69140625,-36.62109375,-38.57421875,-47.8515625,n/a,
1678447611.0880313,-12.6953125,-46.875,-39.0625,-20.99609375,n/a,
1678447611.0919375,-13.671875,-51.7578125,-30.2734375,-13.18359375,n/a,
1678447611.0958438,-15.625,-27.34375,-25.87890625,-3.41796875,n/a,
1678447611.09975,-31.73828125,-6.34765625,-34.1796875,-39.0625,n/a,
1678447611.1036563,-31.73828125,-21.484375,-33.203125,-47.36328125,n/a,
1678447611.1075625,-14.16015625,-27.83203125,-29.78515625,-15.625,n/a,
1678447611.1114688,-9.27734375,-19.04296875,-24.90234375,2.44140625,n/a,
1678447611.115375,-21.484375,-31.73828125,-33.69140625,-7.32421875,n/a,
1678447611.1192813,-37.109375,-47.36328125,-35.64453125,-44.921875,n/a,
1678447611.1231875,-28.80859375,-38.57421875,-25.390625,-50.29296875,n/a,
1678447611.1270938,-17.578125,-19.04296875,-35.64453125,-21.97265625,n/a,
1678447611.114125,-14.6484375,-25.87890625,-43.9453125,-10.25390625,n/a,
1678447611.1180313,-14.16015625,-32.2265625,-32.2265625,-0.48828125,n/a,
1678447611.1219375,-27.34375,-22.94921875,-14.6484375,-19.04296875,n/a,
1678447611.1258438,-32.2265625,-39.0625,-14.6484375,-39.55078125,n/a,
1678447611.12975,-17.08984375,-44.921875,-29.78515625,-20.5078125,n/a,
1678447611.1336563,-11.71875,-23.92578125,-25.390625,-11.71875,n/a,
1678447611.1375625,-3.41796875,-15.13671875,-15.625,2.44140625,n/a,
1678447611.1414688,-14.16015625,-17.578125,-27.34375,-13.18359375,n/a,
1678447611.145375,-34.66796875,-23.92578125,-31.73828125,-46.38671875,n/a,
1678447611.1492813,-25.390625,-31.73828125,-25.87890625,-33.203125,n/a,
1678447611.1531875,-17.08984375,-26.85546875,-24.90234375,-12.20703125,n/a,
1678447611.1570938,-12.6953125,-18.5546875,-23.4375,10.25390625,n/a,
1678447611.159125,-33.69140625,-44.921875,-27.83203125,-18.06640625,n/a,
1678447611.1630313,-40.0390625,-43.45703125,-27.83203125,-33.69140625,n/a,
1678447611.1669376,-19.04296875,-27.34375,-21.97265625,-5.37109375,n/a,
1678447611.1708438,-16.6015625,-40.0390625,-18.5546875,-2.9296875,n/a,
1678447611.17475,-14.6484375,-40.0390625,-29.78515625,8.7890625,n/a,
1678447611.1786563,-19.53125,-19.04296875,-29.78515625,-2.44140625,n/a,
1678447611.1825626,-20.99609375,-9.765625,-22.4609375,-21.484375,n/a,
1678447611.1864688,-21.484375,-31.25,-41.015625,-19.53125,n/a,
1678447611.190375,-21.97265625,-40.52734375,-47.8515625,-21.97265625,n/a,
1678447611.1942813,-9.27734375,-36.1328125,-35.15625,6.34765625,n/a,
1678447611.1981876,-21.484375,-25.390625,-35.15625,-10.25390625,n/a,
1678447611.2020938,-44.921875,-23.4375,-39.55078125,-62.01171875,n/a,
1678447611.204125,-37.109375,-37.59765625,-37.59765625,-45.41015625,n/a,
1678447611.2080312,-14.16015625,-29.296875,-38.0859375,-13.671875,n/a,
1678447611.2119374,-5.37109375,-21.484375,-41.50390625,1.46484375,n/a,
1678447611.2158437,-20.99609375,-22.4609375,-45.8984375,-10.25390625,n/a,
1678447611.21975,-38.0859375,-29.78515625,-40.0390625,-44.43359375,n/a,
1678447611.2236562,-21.484375,-42.48046875,-39.0625,-29.78515625,n/a,
1678447611.2275624,-9.765625,-36.62109375,-37.59765625,-11.23046875,n/a,
1678447611.2314687,-10.7421875,-39.0625,-37.59765625,-11.71875,n/a,
1678447611.235375,-11.71875,-33.203125,-43.9453125,-16.11328125,n/a,
1678447611.2392812,-26.3671875,-27.34375,-36.1328125,-46.875,n/a,
1678447611.2431874,-18.5546875,-25.87890625,-29.296875,-24.90234375,n/a,
1678447611.2470937,-21.97265625,-25.390625,-31.25,-18.5546875,n/a,
1678447611.278125,-29.78515625,-18.06640625,-37.59765625,-32.71484375,n/a,
1678447611.2820313,-29.296875,-13.18359375,-31.25,-21.484375,n/a,
1678447611.2859375,-42.96875,-21.484375,-26.3671875,-50.29296875,n/a,
1678447611.2898438,-33.203125,-35.64453125,-33.69140625,-46.875,n/a,
1678447611.29375,-19.04296875,-39.55078125,-38.57421875,-18.06640625,n/a,
1678447611.2976563,-12.6953125,-30.2734375,-34.66796875,-5.37109375,n/a,
1678447611.3015625,-13.18359375,-30.76171875,-27.83203125,-3.41796875,n/a,
1678447611.3054688,-38.57421875,-36.1328125,-32.71484375,-47.36328125,n/a,
1678447611.309375,-36.1328125,-34.1796875,-45.41015625,-53.7109375,n/a,
1678447611.3132813,-6.34765625,-19.04296875,-34.66796875,-8.7890625,n/a,
1678447611.3171875,-8.30078125,-12.6953125,-34.1796875,-16.11328125,n/a,
1678447611.3210938,-17.08984375,-23.92578125,-41.50390625,-14.16015625,n/a,
1678447611.310125,-32.2265625,-36.1328125,-29.78515625,-31.73828125,n/a,
1678447611.3140314,-31.73828125,-35.64453125,-24.90234375,-47.36328125,n/a,
1678447611.3179376,-20.01953125,-29.78515625,-22.4609375,-27.34375,n/a,
1678447611.3218439,-17.578125,-22.94921875,-20.99609375,-21.484375,n/a,
1678447611.32575,-12.6953125,-26.3671875,-28.3203125,-11.71875,n/a,
1678447611.3296564,-26.3671875,-27.83203125,-24.4140625,-34.1796875,n/a,
1678447611.3335626,-34.1796875,-23.4375,-24.90234375,-53.7109375,n/a,
1678447611.3374689,-17.578125,-25.390625,-33.69140625,-31.73828125,n/a,
1678447611.341375,-3.90625,-22.4609375,-36.62109375,-13.18359375,n/a,
1678447611.3452814,-7.32421875,-39.0625,-36.1328125,-2.44140625,n/a,
1678447611.3491876,-28.80859375,-50.29296875,-28.80859375,-16.6015625,n/a,
1678447611.3530939,-36.1328125,-48.33984375,-34.66796875,-36.62109375,n/a,
1678447611.354125,-14.6484375,-39.55078125,-43.45703125,-21.97265625,n/a,
1678447611.3580313,-5.859375,-19.53125,-37.109375,2.9296875,n/a,
1678447611.3619375,-16.11328125,-20.01953125,-36.1328125,-1.46484375,n/a,
1678447611.3658438,-28.80859375,-27.34375,-34.1796875,-25.87890625,n/a,
1678447611.36975,-35.15625,-28.80859375,-20.5078125,-45.8984375,n/a,
1678447611.3736563,-20.01953125,-24.4140625,-17.08984375,-27.34375,n/a,
1678447611.3775625,-9.27734375,-25.390625,-30.2734375,-12.20703125,n/a,
1678447611.3814688,-1.953125,-37.109375,-29.296875,-0.9765625,n/a,
1678447611.385375,-11.23046875,-31.73828125,-24.90234375,-4.39453125,n/a,
1678447611.3892813,-35.15625,-29.296875,-32.2265625,-36.62109375,n/a,
1678447611.3931875,-26.85546875,-39.55078125,-31.25,-37.109375,n/a,
1678447611.3970938,-10.7421875,-47.36328125,-30.76171875,-15.625,n/a,
1678447611.399125,-9.765625,-40.52734375,-31.25,-3.41796875,n/a,
1678447611.4030313,-26.3671875,-21.97265625,-38.0859375,-20.01953125,n/a,
1678447611.4069376,-42.96875,-17.08984375,-46.38671875,-59.08203125,n/a,
1678447611.4108438,-27.34375,-23.92578125,-39.0625,-42.48046875,n/a,
1678447611.41475,-19.04296875,-41.50390625,-26.85546875,-16.6015625,n/a,
1678447611.4186563,-22.4609375,-37.109375,-19.53125,-1.46484375,n/a,
1678447611.4225626,-23.4375,-19.53125,-17.08984375,-0.48828125,n/a,
1678447611.4264688,-38.57421875,-16.6015625,-13.671875,-30.76171875,n/a,
1678447611.430375,-23.92578125,-21.97265625,-19.53125,-6.8359375,n/a,
1678447611.4342813,-13.18359375,-34.1796875,-37.59765625,4.8828125,n/a,
1678447611.4381876,-16.6015625,-32.71484375,-39.55078125,-2.44140625,n/a,
1678447611.4420938,-15.625,-35.15625,-26.3671875,12.20703125,n/a,
1678447611.444125,-35.15625,-47.36328125,-20.5078125,-19.53125,n/a,
1678447611.4480312,-35.64453125,-40.0390625,-27.34375,-36.62109375,n/a,
1678447611.4519374,-13.18359375,-19.53125,-32.71484375,-19.53125,n/a,
1678447611.4558437,-11.71875,-17.08984375,-29.78515625,-17.08984375,n/a,
1678447611.45975,-21.97265625,-23.92578125,-34.1796875,-18.5546875,n/a,
1678447611.4636562,-28.80859375,-21.484375,-46.38671875,-42.48046875,n/a,
1678447611.4675624,-24.4140625,-22.4609375,-35.15625,-48.33984375,n/a,
1678447611.4714687,-24.4140625,-23.4375,-18.5546875,-25.87890625,n/a,
1678447611.475375,-28.3203125,-28.3203125,-27.83203125,-24.4140625,n/a,
1678447611.4792812,-26.3671875,-35.15625,-30.76171875,-17.08984375,n/a,
1678447611.4831874,-51.26953125,-31.73828125,-21.97265625,-44.43359375,n/a,
1678447611.4870937,-54.6875,-31.73828125,-20.5078125,-62.5,n/a,
1678447611.490125,-28.3203125,-38.57421875,-25.87890625,-32.71484375,n/a,
1678447611.4940312,-19.53125,-37.109375,-28.80859375,-15.13671875,n/a,
1678447611.4979374,-20.99609375,-32.2265625,-27.83203125,-4.39453125,n/a,
1678447611.5018437,-37.109375,-44.43359375,-34.1796875,-24.4140625,n/a,
1678447611.50575,-42.48046875,-47.36328125,-27.83203125,-41.015625,n/a,
1678447611.5096562,-27.34375,-43.9453125,-21.97265625,-26.3671875,n/a,
1678447611.5135624,-22.94921875,-57.6171875,-28.80859375,-12.6953125,n/a,
1678447611.5174687,-25.87890625,-48.828125,-25.390625,8.7890625,n/a,
1678447611.521375,-45.41015625,-38.57421875,-33.69140625,-23.92578125,n/a,
1678447611.5252812,-52.734375,-24.90234375,-35.15625,-52.734375,n/a,
1678447611.5291874,-31.73828125,-22.4609375,-20.5078125,-24.4140625,n/a,
1678447611.5330937,-21.97265625,-31.25,-28.3203125,-7.8125,n/a,
1678447611.534125,-22.4609375,-33.203125,-34.1796875,-0.9765625,n/a,
1678447611.5380313,-29.296875,-31.25,-20.99609375,-11.71875,n/a,
1678447611.5419376,-35.64453125,-28.80859375,-16.6015625,-37.59765625,n/a,
1678447611.5458438,-25.87890625,-36.62109375,-20.99609375,-34.66796875,n/a,
1678447611.54975,-15.625,-30.2734375,-24.4140625,-14.6484375,n/a,
1678447611.5536563,-8.30078125,-19.53125,-25.390625,3.90625,n/a,
1678447611.5575626,-11.71875,-31.25,-20.99609375,0.48828125,n/a,
1678447611.5614688,-28.80859375,-43.45703125,-26.85546875,-27.34375,n/a,
1678447611.565375,-24.90234375,-41.9921875,-40.0390625,-29.78515625,n/a,
1678447611.5692813,-12.20703125,-32.71484375,-42.48046875,-10.7421875,n/a,
1678447611.5731876,-3.90625,-36.1328125,-43.45703125,3.41796875,n/a,
1678447611.5770938,-13.18359375,-34.1796875,-40.0390625,-7.32421875,n/a,
1678447611.579125,-27.34375,-31.25,-35.15625,-37.59765625,n/a,
1678447611.5830312,-13.671875,-30.2734375,-33.69140625,-23.4375,n/a,
1678447611.5869374,-3.41796875,-37.109375,-38.57421875,-7.32421875,n/a,
1678447611.5908437,-7.32421875,-49.8046875,-42.48046875,-5.37109375,n/a,
1678447611.59475,-19.04296875,-40.52734375,-29.296875,-14.16015625,n/a,
1678447611.5986562,-29.78515625,-29.296875,-22.94921875,-42.48046875,n/a,
1678447611.6025624,-15.13671875,-34.66796875,-27.83203125,-25.390625,n/a,
1678447611.6064687,-5.37109375,-48.828125,-35.15625,-11.71875,n/a,
1678447611.610375,-2.9296875,-46.38671875,-39.55078125,-8.30078125,n/a,
1678447611.6142812,-3.90625,-25.87890625,-33.203125,1.953125,n/a,
1678447611.6181874,-23.92578125,-13.18359375,-28.3203125,-23.92578125,n/a,
1678447611.6220937,-31.25,-22.94921875,-40.0390625,-40.52734375,n/a,
1678447611.639125,-17.578125,-49.31640625,-48.33984375,-25.87890625,n/a,
1678447611.6430314,-10.7421875,-50.78125,-33.69140625,-15.625,n/a,
1678447611.6469376,-17.578125,-34.1796875,-20.99609375,-14.6484375,n/a,
1678447611.6508439,-40.0390625,-25.87890625,-25.87890625,-48.33984375,n/a,
1678447611.65475,-40.0390625,-20.01953125,-32.71484375,-55.6640625,n/a,
1678447611.6586564,-8.7890625,-13.671875,-37.59765625,-20.99609375,n/a,
1678447611.6625626,-2.9296875,-27.34375,-41.9921875,-12.20703125,n/a,
1678447611.6664689,-22.4609375,-44.43359375,-41.50390625,-19.53125,n/a,
1678447611.670375,-46.38671875,-34.66796875,-41.015625,-48.33984375,n/a,
1678447611.6742814,-35.64453125,-25.87890625,-37.59765625,-44.921875,n/a,
1678447611.6781876,-22.4609375,-34.66796875,-38.57421875,-27.34375,n/a,
1678447611.6820939,-17.08984375,-38.0859375,-41.9921875,-16.6015625,n/a,
1678447611.684125,-20.99609375,-30.76171875,-44.43359375,0.9765625,n/a,
1678447611.6880312,-44.43359375,-33.69140625,-40.0390625,-18.06640625,n/a,
1678447611.6919374,-49.31640625,-46.875,-49.8046875,-45.41015625,n/a,
1678447611.6958437,-34.66796875,-44.43359375,-53.7109375,-29.78515625,n/a,
1678447611.69975,-23.92578125,-37.59765625,-35.15625,-20.99609375,n/a,
1678447611.7036562,-18.5546875,-33.203125,-35.64453125,-13.18359375,n/a,
1678447611.7075624,-33.203125,-30.76171875,-41.015625,-35.64453125,n/a,
1678447611.7114687,-52.24609375,-43.9453125,-33.203125,-63.96484375,n/a,
1678447611.715375,-36.1328125,-50.29296875,-24.90234375,-37.109375,n/a,
1678447611.7192812,-17.08984375,-42.48046875,-24.4140625,-4.39453125,n/a,
1678447611.7231874,-22.94921875,-33.69140625,-41.50390625,-4.39453125,n/a,
1678447611.7270937,-40.0390625,-31.73828125,-34.66796875,-34.1796875,n/a,
1678447611.730125,-43.45703125,-30.2734375,-18.5546875,-53.7109375,n/a,
1678447611.7340312,-26.3671875,-23.4375,-27.83203125,-38.57421875,n/a,
1678447611.7379375,-23.92578125,-20.5078125,-32.71484375,-31.73828125,n/a,
1678447611.7418437,-18.06640625,-16.11328125,-24.90234375,-15.13671875,n/a,
1678447611.74575,-19.04296875,-21.97265625,-17.578125,-8.7890625,n/a,
1678447611.7496562,-39.55078125,-34.66796875,-21.97265625,-38.0859375,n/a,
1678447611.7535625,-30.76171875,-30.76171875,-28.80859375,-36.1328125,n/a,
1678447611.7574687,-16.6015625,-24.90234375,-28.3203125,-18.06640625,n/a,
1678447611.761375,-12.20703125,-38.57421875,-30.76171875,8.30078125,n/a,
1678447611.7652812,-34.1796875,-45.41015625,-30.76171875,-3.90625,n/a,
1678447611.7691875,-54.6875,-28.3203125,-29.296875,-52.24609375,n/a,
1678447611.7730937,-32.2265625,-34.1796875,-33.69140625,-35.64453125,n/a,
1678447611.774125,-16.11328125,-29.296875,-28.3203125,-7.32421875,n/a,
1678447611.7780313,-18.5546875,-24.4140625,-24.4140625,1.953125,n/a,
1678447611.7819376,-20.01953125,-31.73828125,-26.85546875,-6.34765625,n/a,
1678447611.7858438,-24.4140625,-31.25,-20.01953125,-36.62109375,n/a,
1678447611.78975,-15.13671875,-43.9453125,-17.08984375,-20.01953125,n/a,
1678447611.7936563,-21.97265625,-49.8046875,-19.04296875,-10.7421875,n/a,
1678447611.7975626,-24.90234375,-46.38671875,-20.5078125,-16.11328125,n/a,
1678447611.8014688,-16.6015625,-41.015625,-26.3671875,-11.23046875,n/a,
1678447611.805375,-42.96875,-22.4609375,-17.08984375,-40.0390625,n/a,
1678447611.8092813,-39.0625,-23.92578125,-22.94921875,-43.9453125,n/a,
1678447611.8131876,-24.4140625,-34.1796875,-32.71484375,-25.390625,n/a,
1678447611.8170938,-19.53125,-33.69140625,-26.85546875,-5.37109375,n/a,
1678447611.835125,-19.04296875,-59.5703125,-26.3671875,-1.953125,n/a,
1678447611.8390312,-42.96875,-57.12890625,-24.90234375,-38.57421875,n/a,
1678447611.8429375,-44.921875,-31.73828125,-23.92578125,-36.1328125,n/a,
1678447611.8468437,-36.1328125,-22.4609375,-22.94921875,-13.18359375,n/a,
1678447611.85075,-31.73828125,-15.625,-33.203125,-8.30078125,n/a,
1678447611.8546562,-32.71484375,-19.04296875,-44.921875,-5.859375,n/a,
1678447611.8585625,-53.7109375,-25.87890625,-34.66796875,-40.0390625,n/a,
1678447611.8624687,-46.38671875,-26.85546875,-20.01953125,-29.78515625,n/a,
1678447611.866375,-29.78515625,-36.62109375,-16.6015625,1.953125,n/a,
1678447611.8702812,-32.71484375,-39.55078125,-19.53125,-9.27734375,n/a,
1678447611.8741875,-23.4375,-34.66796875,-23.92578125,-4.39453125,n/a,
1678447611.8780937,-35.15625,-51.7578125,-22.94921875,-29.296875,n/a,
1678447611.864125,-42.96875,-65.91796875,-23.4375,-48.828125,n/a,
1678447611.8680313,-24.90234375,-37.109375,-30.2734375,-28.3203125,n/a,
1678447611.8719375,-11.71875,-15.13671875,-30.2734375,-9.27734375,n/a,
1678447611.8758438,-15.13671875,-14.6484375,-31.25,-0.9765625,n/a,
1678447611.87975,-34.1796875,-18.06640625,-32.71484375,-31.73828125,n/a,
1678447611.8836563,-40.0390625,-30.2734375,-35.64453125,-48.828125,n/a,
1678447611.8875625,-21.484375,-30.2734375,-46.875,-30.76171875,n/a,
1678447611.8914688,-16.6015625,-32.71484375,-39.55078125,-28.80859375,n/a,
1678447611.895375,-12.20703125,-46.875,-34.66796875,-17.578125,n/a,
1678447611.8992813,-13.671875,-33.69140625,-34.66796875,-31.25,n/a,
1678447611.9031875,-25.87890625,-20.01953125,-20.01953125,-47.36328125,n/a,
1678447611.9070938,-4.8828125,-13.671875,-22.4609375,-9.27734375,n/a,
1678447611.910125,0.9765625,-13.671875,-37.59765625,-6.34765625,n/a,
1678447611.9140313,-6.8359375,-21.97265625,-38.57421875,-8.30078125,n/a,
1678447611.9179375,-17.08984375,-28.80859375,-37.109375,-15.625,n/a,
1678447611.9218438,-34.66796875,-34.66796875,-42.96875,-48.828125,n/a,
1678447611.92575,-23.4375,-35.64453125,-42.48046875,-33.203125,n/a,
1678447611.9296563,-13.18359375,-25.390625,-36.62109375,-17.08984375,n/a,
1678447611.9335625,-1.46484375,-18.06640625,-24.4140625,4.39453125,n/a,
1678447611.9374688,-20.99609375,-34.66796875,-19.04296875,-2.9296875,n/a,
1678447611.941375,-48.33984375,-25.390625,-22.94921875,-43.9453125,n/a,
1678447611.9452813,-24.4140625,-12.20703125,-31.25,-30.76171875,n/a,
1678447611.9491875,-15.625,-21.484375,-32.2265625,-19.53125,n/a,
1678447611.9530938,-12.6953125,-22.4609375,-23.92578125,-7.8125,n/a,
1678447611.954125,-4.39453125,-25.87890625,-26.3671875,-7.8125,n/a,
1678447611.9580312,-27.83203125,-32.71484375,-23.4375,-39.0625,n/a,
1678447611.9619374,-24.4140625,-24.4140625,-24.4140625,-37.59765625,n/a,
1678447611.9658437,-14.6484375,-21.484375,-32.71484375,-24.4140625,n/a,
1678447611.96975,-23.4375,-33.203125,-30.2734375,-14.6484375,n/a,
1678447611.9736562,-17.578125,-37.109375,-20.99609375,-1.953125,n/a,
1678447611.9775624,-33.203125,-33.203125,-22.4609375,-27.34375,n/a,
1678447611.9814687,-35.64453125,-26.85546875,-32.2265625,-36.62109375,n/a,
1678447611.985375,-14.6484375,-20.5078125,-28.3203125,-15.13671875,n/a,
1678447611.9892812,-10.7421875,-19.53125,-23.92578125,4.39453125,n/a,
1678447611.9931874,-12.20703125,-22.94921875,-21.484375,20.01953125,n/a,
1678447611.9970937,-30.2734375,-30.2734375,-24.90234375,-21.484375,n/a,
1678447612.014125,-34.1796875,-43.9453125,-35.64453125,-43.45703125,n/a,
1678447612.0180314,-13.671875,-45.41015625,-40.0390625,-18.06640625,n/a,
1678447612.0219376,-8.7890625,-38.0859375,-42.48046875,-10.25390625,n/a,
1678447612.0258439,-10.25390625,-39.55078125,-39.55078125,-5.37109375,n/a,
1678447612.02975,-19.53125,-26.3671875,-31.73828125,-28.80859375,n/a,
1678447612.0336564,-20.5078125,-18.5546875,-20.01953125,-31.73828125,n/a,
1678447612.0375626,-8.30078125,-29.78515625,-20.5078125,-4.39453125,n/a,
1678447612.0414689,-7.32421875,-27.34375,-27.83203125,-0.48828125,n/a,
1678447612.045375,-8.30078125,-20.5078125,-26.85546875,5.37109375,n/a,
1678447612.0492814,-11.71875,-14.6484375,-20.01953125,-5.859375,n/a,
1678447612.0531876,-22.94921875,-25.390625,-19.53125,-26.3671875,n/a,
1678447612.0570939,-16.11328125,-36.1328125,-24.4140625,-14.6484375,n/a,
1678447612.059125,-8.7890625,-33.69140625,-28.80859375,0.48828125,n/a,
1678447612.0630312,6.34765625,-31.73828125,-35.64453125,19.04296875,n/a,
1678447612.0669374,-9.765625,-34.1796875,-20.5078125,-1.46484375,n/a,
1678447612.0708437,-34.1796875,-24.90234375,-6.34765625,-30.76171875,n/a,
1678447612.07475,-19.04296875,-19.04296875,-5.37109375,-12.20703125,n/a,
1678447612.0786562,-7.8125,-39.55078125,-8.7890625,6.34765625,n/a,
1678447612.0825624,-3.90625,-40.52734375,-14.16015625,23.4375,n/a,
1678447612.0864687,-22.4609375,-20.5078125,-20.01953125,-7.8125,n/a,
1678447612.090375,-36.1328125,-26.85546875,-15.625,-36.1328125,n/a,
1678447612.0942812,-15.13671875,-26.85546875,-6.8359375,-1.953125,n/a,
1678447612.0981874,-8.30078125,-23.92578125,-10.25390625,7.32421875,n/a,
1678447612.1020937,-12.6953125,-32.2265625,-23.92578125,8.7890625,n/a,
1678447612.118125,-15.625,-34.66796875,-20.01953125,8.7890625,n/a,
1678447612.1220312,-22.4609375,-28.80859375,-15.625,-15.13671875,n/a,
1678447612.1259375,-14.16015625,-30.2734375,-28.3203125,-21.484375,n/a,
1678447612.1298437,-10.25390625,-48.828125,-25.390625,-11.71875,n/a,
1678447612.13375,-2.9296875,-44.921875,-14.16015625,14.16015625,n/a,
1678447612.1376562,-16.6015625,-25.390625,-13.18359375,-1.953125,n/a,
1678447612.1415625,-35.15625,-21.484375,-18.06640625,-50.29296875,n/a,
1678447612.1454687,-20.01953125,-25.87890625,-28.80859375,-33.69140625,n/a,
1678447612.149375,-0.48828125,-27.34375,-30.76171875,-2.44140625,n/a,
1678447612.1532812,0.0,-34.1796875,-30.76171875,0.48828125,n/a,
1678447612.1571875,-14.6484375,-30.76171875,-45.41015625,-17.08984375,n/a,
1678447612.1610937,-29.78515625,-25.87890625,-48.33984375,-45.41015625,n/a,
1678447612.149125,-20.5078125,-35.15625,-36.1328125,-33.203125,n/a,
1678447612.1530313,-4.39453125,-35.64453125,-24.90234375,-12.6953125,n/a,
1678447612.1569376,-7.32421875,-41.015625,-29.78515625,-11.23046875,n/a,
1678447612.1608438,-14.6484375,-42.96875,-39.55078125,-5.859375,n/a,
1678447612.16475,-29.296875,-41.9921875,-32.2265625,-32.2265625,n/a,
1678447612.1686563,-23.4375,-28.80859375,-20.99609375,-34.66796875,n/a,
1678447612.1725626,-7.32421875,-17.08984375,-22.94921875,-8.7890625,n/a,
1678447612.1764688,-11.23046875,-18.5546875,-23.4375,-2.44140625,n/a,
1678447612.180375,-16.11328125,-23.4375,-27.83203125,0.9765625,n/a,
1678447612.1842813,-25.87890625,-21.484375,-38.57421875,-25.390625,n/a,
1678447612.1881876,-29.296875,-27.34375,-36.1328125,-40.0390625,n/a,
1678447612.1920938,-3.90625,-35.64453125,-27.34375,-7.8125,n/a,
1678447612.194125,3.90625,-39.55078125,-34.1796875,11.23046875,n/a,
1678447612.1980312,-15.625,-47.36328125,-49.31640625,-11.23046875,n/a,
1678447612.2019374,-33.69140625,-32.2265625,-40.0390625,-48.33984375,n/a,
1678447612.2058437,-32.71484375,-13.671875,-25.87890625,-55.17578125,n/a,
1678447612.20975,-28.80859375,-20.01953125,-20.5078125,-41.015625,n/a,
1678447612.2136562,-28.3203125,-21.97265625,-21.97265625,-29.78515625,n/a,
1678447612.2175624,-25.87890625,-21.97265625,-27.83203125,-20.5078125,n/a,
1678447612.2214687,-35.15625,-26.85546875,-22.4609375,-32.71484375,n/a,
1678447612.225375,-45.41015625,-29.78515625,-27.34375,-52.734375,n/a,
1678447612.2292812,-41.50390625,-44.43359375,-41.015625,-41.9921875,n/a,
1678447612.2331874,-32.71484375,-54.6875,-40.0390625,-28.3203125,n/a,
1678447612.2370937,-30.76171875,-36.1328125,-37.59765625,-24.4140625,n/a,
1678447612.238125,-40.52734375,-17.08984375,-40.52734375,-47.36328125,n/a,
1678447612.2420313,-40.0390625,-20.5078125,-38.0859375,-50.78125,n/a,
1678447612.2459376,-18.5546875,-25.87890625,-28.3203125,-14.16015625,n/a,
1678447612.2498438,-14.6484375,-30.76171875,-21.484375,-0.48828125,n/a,
1678447612.25375,-13.671875,-30.76171875,-26.85546875,14.6484375,n/a,
1678447612.2576563,-23.92578125,-30.2734375,-34.1796875,-2.44140625,n/a,
1678447612.2615626,-28.3203125,-36.62109375,-23.4375,-23.92578125,n/a,
1678447612.2654688,-7.8125,-37.59765625,-14.6484375,7.32421875,n/a,
1678447612.269375,-6.8359375,-42.48046875,-18.06640625,11.23046875,n/a,
1678447612.2732813,-6.34765625,-32.71484375,-22.4609375,9.27734375,n/a,
1678447612.2771876,-19.04296875,-23.4375,-26.85546875,0.48828125,n/a,
1678447612.2810938,-35.64453125,-24.4140625,-37.59765625,-28.80859375,n/a,
1678447612.283125,-20.5078125,-25.390625,-37.59765625,-22.4609375,n/a,
1678447612.2870312,-11.23046875,-28.3203125,-30.76171875,-8.30078125,n/a,
1678447612.2909374,-12.20703125,-32.2265625,-26.3671875,0.0,n/a,
1678447612.2948437,-30.76171875,-26.85546875,-24.4140625,-22.4609375,n/a,
1678447612.29875,-54.6875,-20.99609375,-25.390625,-61.03515625,n/a,
1678447612.3026562,-33.203125,-35.64453125,-34.1796875,-38.0859375,n/a,
1678447612.3065624,-12.20703125,-35.64453125,-40.0390625,-5.859375,n/a,
1678447612.3104687,-20.99609375,-27.34375,-41.50390625,-7.32421875,n/a,
1678447612.314375,-24.90234375,-29.296875,-35.64453125,-13.671875,n/a,
1678447612.3182812,-31.25,-30.2734375,-25.390625,-31.25,n/a,
1678447612.3221874,-30.2734375,-20.99609375,-31.73828125,-33.69140625,n/a,
1678447612.3260937,-35.64453125,-16.11328125,-39.0625,-39.0625,n/a,
1678447612.330125,-42.48046875,-15.625,-43.9453125,-43.9453125,n/a,
1678447612.3340313,-34.1796875,-13.671875,-43.9453125,-38.0859375,n/a,
1678447612.3379376,-43.9453125,-14.6484375,-44.921875,-63.4765625,n/a,
1678447612.3418438,-44.43359375,-20.5078125,-50.29296875,-64.94140625,n/a,
1678447612.34575,-29.296875,-27.34375,-48.33984375,-43.9453125,n/a,
1678447612.3496563,-23.4375,-22.4609375,-44.43359375,-28.3203125,n/a,
1678447612.3535626,-27.83203125,-26.85546875,-44.43359375,-18.06640625,n/a,
1678447612.3574688,-56.640625,-30.2734375,-48.33984375,-53.22265625,n/a,
1678447612.361375,-57.6171875,-35.15625,-57.6171875,-60.546875,n/a,
1678447612.3652813,-26.3671875,-25.87890625,-54.6875,-24.90234375,n/a,
1678447612.3691876,-14.16015625,-21.97265625,-46.38671875,-6.34765625,n/a,
1678447612.3730938,-27.34375,-36.1328125,-52.24609375,-18.06640625,n/a,
1678447612.390125,-43.45703125,-24.90234375,-41.9921875,-41.015625,n/a,
1678447612.3940313,-34.66796875,-15.625,-38.57421875,-44.43359375,n/a,
1678447612.3979375,-20.99609375,-20.01953125,-41.50390625,-28.80859375,n/a,
1678447612.4018438,-22.4609375,-25.390625,-35.64453125,-19.04296875,n/a,
1678447612.40575,-23.4375,-34.66796875,-37.109375,-5.859375,n/a,
1678447612.4096563,-26.85546875,-26.3671875,-27.34375,-12.6953125,n/a,
1678447612.4135625,-27.83203125,-22.4609375,-25.390625,-33.203125,n/a,
1678447612.4174688,-15.625,-20.99609375,-38.57421875,-20.01953125,n/a,
1678447612.421375,-3.41796875,-24.4140625,-34.1796875,0.0,n/a,
1678447612.4252813,4.39453125,-43.45703125,-30.2734375,13.18359375,n/a,
1678447612.4291875,-23.92578125,-45.41015625,-42.96875,-23.4375,n/a,
1678447612.4330938,-35.15625,-27.83203125,-48.828125,-54.6875,n/a,
1678447612.434125,-7.8125,-20.01953125,-49.31640625,-25.87890625,n/a,
1678447612.4380312,1.46484375,-10.25390625,-47.8515625,-7.32421875,n/a,
1678447612.4419374,-4.39453125,-14.6484375,-39.0625,-2.9296875,n/a,
1678447612.4458437,-29.296875,-33.203125,-32.2265625,-27.34375,n/a,
1678447612.44975,-39.55078125,-27.83203125,-32.2265625,-42.48046875,n/a,
1678447612.4536562,-17.08984375,-29.78515625,-40.52734375,-9.765625,n/a,
1678447612.4575624,-14.16015625,-36.62109375,-38.0859375,-1.953125,n/a,
1678447612.4614687,-12.20703125,-25.87890625,-29.78515625,2.44140625,n/a,
1678447612.465375,-13.671875,-21.97265625,-27.34375,-4.8828125,n/a,
1678447612.4692812,-13.18359375,-26.85546875,-19.04296875,-12.20703125,n/a,
1678447612.4731874,-11.71875,-29.296875,-22.94921875,-1.46484375,n/a,
1678447612.4770937,-12.6953125,-20.99609375,-33.69140625,-4.8828125,n/a,
1678447612.480125,-0.9765625,-13.671875,-27.83203125,6.34765625,n/a,
1678447612.4840312,-13.671875,-16.11328125,-24.90234375,-9.765625,n/a,
1678447612.4879375,-29.78515625,-15.625,-26.3671875,-43.9453125,n/a,
1678447612.4918437,-11.71875,-26.85546875,-32.71484375,-22.4609375,n/a,
1678447612.49575,2.44140625,-35.15625,-39.55078125,-0.9765625,n/a,
1678447612.4996562,-4.8828125,-29.296875,-38.0859375,-2.9296875,n/a,
1678447612.5035625,-21.97265625,-29.296875,-29.296875,-15.13671875,n/a,
1678447612.5074687,-43.45703125,-41.50390625,-25.390625,-56.15234375,n/a,
1678447612.511375,-35.15625,-42.48046875,-26.3671875,-35.64453125,n/a,
1678447612.5152812,-23.4375,-28.80859375,-38.0859375,-7.8125,n/a,
1678447612.5191875,-27.83203125,-30.76171875,-44.921875,-24.90234375,n/a,
1678447612.5230937,-28.80859375,-33.69140625,-30.2734375,-19.53125,n/a,
1678447612.539125,-39.0625,-25.87890625,-27.83203125,-40.0390625,n/a,
1678447612.5430312,-32.71484375,-18.06640625,-37.109375,-38.57421875,n/a,
1678447612.5469375,-15.13671875,-22.4609375,-30.2734375,-14.6484375,n/a,
1678447612.5508437,-11.71875,-30.2734375,-20.99609375,-3.90625,n/a,
1678447612.55475,-23.92578125,-25.390625,-23.4375,1.46484375,n/a,
1678447612.5586562,-45.41015625,-31.25,-17.08984375,-35.15625,n/a,
1678447612.5625625,-47.8515625,-38.57421875,-19.04296875,-50.78125,n/a,
1678447612.5664687,-24.90234375,-35.64453125,-24.90234375,-16.6015625,n/a,
1678447612.570375,-7.32421875,-31.73828125,-28.3203125,8.30078125,n/a,
1678447612.5742812,-22.4609375,-37.59765625,-40.52734375,-9.27734375,n/a,
1678447612.5781875,-41.015625,-33.203125,-33.69140625,-45.41015625,n/a,
1678447612.5820937,-36.1328125,-18.5546875,-21.97265625,-37.109375,n/a,
1678447612.569125,-22.94921875,-30.2734375,-27.83203125,-7.32421875,n/a,
1678447612.5730312,-24.90234375,-50.78125,-37.109375,-17.08984375,n/a,
1678447612.5769374,-24.90234375,-29.78515625,-36.1328125,-15.625,n/a,
1678447612.5808437,-32.2265625,-23.92578125,-32.71484375,-29.296875,n/a,
1678447612.58475,-37.59765625,-44.43359375,-32.2265625,-53.22265625,n/a,
1678447612.5886562,-25.390625,-28.80859375,-32.2265625,-41.015625,n/a,
1678447612.5925624,-18.06640625,-22.4609375,-27.34375,-24.4140625,n/a,
1678447612.5964687,-18.5546875,-32.71484375,-27.83203125,-11.23046875,n/a,
1678447612.600375,-33.69140625,-32.2265625,-40.52734375,-32.71484375,n/a,
1678447612.6042812,-38.57421875,-39.55078125,-43.45703125,-47.36328125,n/a,
1678447612.6081874,-19.53125,-40.0390625,-34.1796875,-26.3671875,n/a,
1678447612.6120937,-2.44140625,-22.94921875,-31.25,4.39453125,n/a,
1678447612.614125,-4.39453125,-17.08984375,-27.83203125,7.8125,n/a,
1678447612.6180313,-31.25,-22.94921875,-21.97265625,-28.3203125,n/a,
1678447612.6219375,-37.59765625,-34.66796875,-27.83203125,-40.52734375,n/a,
1678447612.6258438,-14.16015625,-47.8515625,-37.59765625,-15.13671875,n/a,
1678447612.62975,-10.25390625,-42.48046875,-40.52734375,-8.7890625,n/a,
1678447612.6336563,-9.765625,-33.69140625,-36.62109375,-2.44140625,n/a,
1678447612.6375625,-12.20703125,-33.69140625,-38.57421875,-10.7421875,n/a,
1678447612.6414688,-21.484375,-30.2734375,-32.71484375,-28.80859375,n/a,
1678447612.645375,-23.4375,-32.71484375,-29.78515625,-28.3203125,n/a,
1678447612.6492813,-17.578125,-31.73828125,-35.15625,-25.390625,n/a,
1678447612.6531875,-12.20703125,-24.90234375,-37.59765625,-13.671875,n/a,
1678447612.6570938,-20.5078125,-29.78515625,-40.52734375,-20.99609375,n/a,
1678447612.675125,-37.109375,-41.9921875,-47.8515625,-57.6171875,n/a,
1678447612.6790311,-27.34375,-33.69140625,-43.45703125,-43.45703125,n/a,
1678447612.6829374,-11.71875,-30.2734375,-31.25,-17.578125,n/a,
1678447612.6868436,-10.25390625,-38.57421875,-29.78515625,-10.7421875,n/a,
1678447612.69075,-21.484375,-32.2265625,-29.78515625,-19.53125,n/a,
1678447612.6946561,-32.71484375,-31.73828125,-34.1796875,-45.8984375,n/a,
1678447612.6985624,-15.13671875,-32.71484375,-29.78515625,-27.34375,n/a,
1678447612.7024686,-9.27734375,-22.4609375,-25.87890625,-6.8359375,n/a,
1678447612.706375,-19.53125,-31.73828125,-30.2734375,-6.34765625,n/a,
1678447612.7102811,-24.90234375,-51.26953125,-29.78515625,-10.7421875,n/a,
1678447612.7141874,-34.1796875,-32.71484375,-24.4140625,-33.203125,n/a,
1678447612.7180936,-34.1796875,-25.390625,-30.2734375,-41.9921875,n/a,
1678447612.704125,-27.83203125,-40.0390625,-38.0859375,-31.73828125,n/a,
1678447612.7080312,-23.4375,-34.66796875,-32.2265625,-18.06640625,n/a,
1678447612.7119374,-22.4609375,-27.34375,-30.76171875,-12.6953125,n/a,
1678447612.7158437,-34.1796875,-37.109375,-34.66796875,-43.45703125,n/a,
1678447612.71975,-27.83203125,-38.0859375,-33.203125,-43.9453125,n/a,
1678447612.7236562,-6.8359375,-21.97265625,-24.4140625,-11.23046875,n/a,
1678447612.7275624,-10.7421875,-20.99609375,-19.53125,-7.32421875,n/a,
1678447612.7314687,-24.4140625,-32.2265625,-19.04296875,-11.23046875,n/a,
1678447612.735375,-34.1796875,-25.390625,-20.99609375,-34.1796875,n/a,
1678447612.7392812,-29.78515625,-26.3671875,-24.90234375,-36.62109375,n/a,
1678447612.7431874,-4.39453125,-27.83203125,-9.27734375,9.765625,n/a,
1678447612.7470937,2.9296875,-19.53125,-9.765625,18.06640625,n/a,
1678447612.764125,-9.765625,-26.85546875,-27.34375,-2.9296875,n/a,
1678447612.7680314,-23.92578125,-16.6015625,-22.94921875,-23.4375,n/a,
1678447612.7719376,-24.4140625,-17.08984375,-20.99609375,-34.1796875,n/a,
1678447612.7758439,-16.6015625,-29.296875,-32.2265625,-24.90234375,n/a,
1678447612.77975,-10.7421875,-33.69140625,-34.66796875,-13.18359375,n/a,
1678447612.7836564,-2.9296875,-42.48046875,-29.78515625,4.8828125,n/a,
1678447612.7875626,-16.11328125,-28.3203125,-31.25,-15.13671875,n/a,
1678447612.7914689,-23.92578125,-12.6953125,-36.62109375,-33.203125,n/a,
1678447612.795375,-5.859375,-8.7890625,-37.109375,-13.671875,n/a,
1678447612.7992814,7.8125,-9.27734375,-31.25,8.30078125,n/a,
1678447612.8031876,-3.90625,-20.99609375,-37.59765625,7.8125,n/a,
1678447612.8070939,-28.80859375,-25.390625,-37.109375,-24.90234375,n/a,
1678447612.809125,-31.25,-20.99609375,-25.390625,-39.55078125,n/a,
1678447612.8130312,-9.27734375,-36.62109375,-33.203125,-19.53125,n/a,
1678447612.8169374,-7.32421875,-48.828125,-41.50390625,-8.7890625,n/a,
1678447612.8208437,-4.39453125,-33.69140625,-35.15625,1.953125,n/a,
1678447612.82475,-7.8125,-26.3671875,-29.78515625,-14.6484375,n/a,
1678447612.8286562,-22.94921875,-22.94921875,-26.3671875,-35.15625,n/a,
1678447612.8325624,-20.01953125,-21.97265625,-30.2734375,-21.97265625,n/a,
1678447612.8364687,-11.71875,-33.203125,-37.109375,-15.13671875,n/a,
1678447612.840375,-4.39453125,-36.1328125,-35.15625,1.953125,n/a,
1678447612.8442812,-16.6015625,-24.4140625,-30.2734375,6.34765625,n/a,
1678447612.8481874,-49.31640625,-22.4609375,-30.76171875,-41.9921875,n/a,
1678447612.8520937,-43.9453125,-28.80859375,-36.1328125,-41.9921875,n/a,
1678447612.854125,-19.53125,-29.78515625,-41.9921875,-14.6484375,n/a,
1678447612.8580313,-8.30078125,-16.6015625,-48.828125,-5.37109375,n/a,
1678447612.8619375,-19.04296875,-6.8359375,-52.24609375,-11.71875,n/a,
1678447612.8658438,-41.015625,-21.97265625,-33.203125,-39.0625,n/a,
1678447612.86975,-21.484375,-34.66796875,-13.671875,-20.5078125,n/a,
1678447612.8736563,-8.7890625,-27.34375,-15.13671875,-9.765625,n/a,
1678447612.8775625,-11.23046875,-19.04296875,-23.4375,-6.8359375,n/a,
1678447612.8814688,-15.625,-19.04296875,-26.3671875,-5.859375,n/a,
1678447612.885375,-36.1328125,-19.53125,-27.34375,-33.69140625,n/a,
1678447612.8892813,-39.0625,-25.87890625,-38.0859375,-36.62109375,n/a,
1678447612.8931875,-33.69140625,-33.203125,-49.31640625,-28.3203125,n/a,
1678447612.8970938,-28.80859375,-29.296875,-46.38671875,-19.04296875,n/a,
1678447612.899125,-29.78515625,-32.2265625,-42.96875,-13.18359375,n/a,
1678447612.9030313,-52.734375,-30.2734375,-36.1328125,-49.31640625,n/a,
1678447612.9069376,-47.36328125,-23.92578125,-33.69140625,-54.19921875,n/a,
1678447612.9108438,-22.94921875,-27.34375,-42.96875,-17.578125,n/a,
1678447612.91475,-24.4140625,-34.66796875,-45.8984375,-10.25390625,n/a,
1678447612.9186563,-31.25,-47.36328125,-40.52734375,-11.71875,n/a,
1678447612.9225626,-47.36328125,-45.8984375,-30.2734375,-39.55078125,n/a,
1678447612.9264688,-47.36328125,-36.1328125,-12.20703125,-37.109375,n/a,
1678447612.930375,-26.3671875,-26.85546875,-2.44140625,8.30078125,n/a,
1678447612.9342813,-20.99609375,-27.83203125,-9.27734375,6.8359375,n/a,
1678447612.9381876,-30.76171875,-37.109375,-18.06640625,-4.39453125,n/a,
1678447612.9420938,-42.96875,-34.1796875,-21.97265625,-24.90234375,n/a,
1678447612.945125,-39.55078125,-30.76171875,-31.73828125,-42.48046875,n/a,
1678447612.9490314,-25.390625,-29.296875,-41.015625,-29.78515625,n/a,
1678447612.9529376,-18.5546875,-29.296875,-39.0625,-15.625,n/a,
1678447612.9568439,-17.578125,-28.3203125,-29.78515625,1.46484375,n/a,
1678447612.96075,-34.1796875,-28.80859375,-29.296875,-21.484375,n/a,
1678447612.9646564,-40.0390625,-23.92578125,-33.203125,-46.38671875,n/a,
1678447612.9685626,-15.625,-28.80859375,-32.2265625,-23.4375,n/a,
1678447612.9724689,-6.34765625,-30.76171875,-25.87890625,-1.46484375,n/a,
1678447612.976375,-21.484375,-24.4140625,-31.73828125,-8.30078125,n/a,
1678447612.9802814,-43.45703125,-17.578125,-40.0390625,-39.55078125,n/a,
1678447612.9841876,-39.0625,-22.94921875,-25.87890625,-50.29296875,n/a,
1678447612.9880939,-20.01953125,-46.875,-24.90234375,-28.3203125,n/a,
1678447612.989125,-23.92578125,-45.8984375,-39.0625,-27.83203125,n/a,
1678447612.9930313,-32.2265625,-24.90234375,-36.1328125,-22.94921875,n/a,
1678447612.9969375,-40.52734375,-18.5546875,-28.80859375,-30.76171875,n/a,
1678447613.0008438,-51.7578125,-19.53125,-30.2734375,-52.24609375,n/a,
1678447613.00475,-38.57421875,-19.53125,-36.1328125,-34.1796875,n/a,
1678447613.0086563,-23.92578125,-25.87890625,-32.71484375,-18.06640625,n/a,
1678447613.0125625,-17.08984375,-39.0625,-26.3671875,2.9296875,n/a,
1678447613.0164688,-15.625,-40.0390625,-16.11328125,10.25390625,n/a,
1678447613.020375,-33.203125,-34.66796875,-18.5546875,-34.1796875,n/a,
1678447613.0242813,-20.01953125,-22.94921875,-27.83203125,-23.92578125,n/a,
1678447613.0281875,0.9765625,-13.671875,-20.5078125,6.8359375,n/a,
1678447613.0320938,1.46484375,-22.4609375,-24.90234375,13.18359375,n/a,
1678447613.034125,-10.25390625,-32.71484375,-38.0859375,-6.34765625,n/a,
1678447613.0380313,-27.83203125,-30.76171875,-36.1328125,-36.1328125,n/a,
1678447613.0419376,-14.6484375,-32.2265625,-35.15625,-14.6484375,n/a,
1678447613.0458438,-5.37109375,-41.50390625,-37.109375,-6.34765625,n/a,
1678447613.04975,-4.39453125,-38.0859375,-35.64453125,-6.34765625,n/a,
1678447613.0536563,-6.8359375,-33.203125,-25.87890625,8.30078125,n/a,
1678447613.0575626,-24.90234375,-38.57421875,-29.296875,-15.13671875,n/a,
1678447613.0614688,-27.83203125,-38.0859375,-33.203125,-23.92578125,n/a,
1678447613.065375,-20.99609375,-38.57421875,-24.90234375,-13.18359375,n/a,
1678447613.0692813,-14.6484375,-34.1796875,-22.94921875,-4.8828125,n/a,
1678447613.0731876,-23.92578125,-28.3203125,-22.94921875,-3.41796875,n/a,
1678447613.0770938,-46.875,-24.90234375,-20.5078125,-37.59765625,n/a,
1678447613.079125,-46.38671875,-27.34375,-26.85546875,-44.921875,n/a,
1678447613.0830312,-35.15625,-45.8984375,-31.73828125,-27.34375,n/a,
1678447613.0869374,-30.2734375,-50.29296875,-32.2265625,-23.92578125,n/a,
1678447613.0908437,-30.76171875,-35.15625,-44.921875,-22.94921875,n/a,
1678447613.09475,-47.36328125,-32.71484375,-57.6171875,-43.9453125,n/a,
1678447613.0986562,-36.1328125,-35.15625,-41.9921875,-42.48046875,n/a,
1678447613.1025624,-15.13671875,-39.0625,-22.4609375,-10.25390625,n/a,
1678447613.1064687,-16.11328125,-50.78125,-30.76171875,-0.48828125,n/a,
1678447613.110375,-16.11328125,-47.8515625,-40.52734375,5.37109375,n/a,
1678447613.1142812,-25.87890625,-26.85546875,-25.87890625,-12.20703125,n/a,
1678447613.1181874,-19.04296875,-19.53125,-17.08984375,-8.7890625,n/a,
1678447613.1220937,-8.30078125,-30.2734375,-36.62109375,5.859375,n/a,
1678447613.139125,-3.90625,-38.0859375,-40.52734375,8.30078125,n/a,
1678447613.1430314,11.71875,-25.87890625,-21.484375,30.2734375,n/a,
1678447613.1469376,-7.32421875,-26.3671875,-20.01953125,-1.46484375,n/a,
1678447613.1508439,-23.4375,-31.25,-31.25,-31.25,n/a,
1678447613.15475,-5.859375,-27.83203125,-36.62109375,-10.25390625,n/a,
1678447613.1586564,2.9296875,-39.55078125,-26.3671875,10.25390625,n/a,
1678447613.1625626,9.765625,-37.109375,-20.01953125,26.85546875,n/a,
1678447613.1664689,-3.90625,-37.109375,-34.66796875,1.46484375,n/a,
1678447613.170375,-16.6015625,-33.69140625,-36.1328125,-25.87890625,n/a,
1678447613.1742814,1.953125,-20.5078125,-20.01953125,2.44140625,n/a,
1678447613.1781876,0.48828125,-37.109375,-20.99609375,13.18359375,n/a,
1678447613.1820939,-15.625,-54.19921875,-29.296875,4.39453125,n/a,
1678447613.184125,-22.4609375,-34.1796875,-23.4375,-9.765625,n/a,
1678447613.1880312,-30.2734375,-18.06640625,-21.97265625,-36.62109375,n/a,
1678447613.1919374,-26.85546875,-22.94921875,-31.73828125,-35.15625,n/a,
1678447613.1958437,-17.578125,-27.83203125,-36.62109375,-17.578125,n/a,
1678447613.19975,-16.11328125,-26.3671875,-44.921875,-5.859375,n/a,
1678447613.2036562,-29.296875,-21.484375,-47.36328125,-20.99609375,n/a,
1678447613.2075624,-42.96875,-29.296875,-31.73828125,-47.8515625,left,1678447613.2044697
1678447613.2114687,-40.0390625,-58.10546875,-33.69140625,-41.9921875,n/a,
1678447613.215375,-20.5078125,-57.12890625,-28.3203125,-15.13671875,n/a,
1678447613.2192812,-12.20703125,-33.69140625,-15.13671875,13.18359375,n/a,
1678447613.2231874,-31.25,-39.55078125,-23.4375,-12.6953125,n/a,
1678447613.2270937,-48.828125,-36.62109375,-28.3203125,-59.5703125,n/a,
1678447613.229125,-37.109375,-27.83203125,-24.4140625,-41.9921875,n/a,
1678447613.2330313,-25.390625,-36.62109375,-31.25,-24.90234375,n/a,
1678447613.2369375,-32.2265625,-37.109375,-36.62109375,-29.78515625,n/a,
1678447613.2408438,-28.3203125,-19.53125,-34.66796875,-23.92578125,n/a,
1678447613.24475,-35.15625,-19.04296875,-36.62109375,-46.875,n/a,
1678447613.2486563,-38.0859375,-34.1796875,-33.203125,-43.9453125,n/a,
1678447613.2525625,-23.4375,-33.69140625,-28.3203125,-25.390625,n/a,
1678447613.2564688,-14.6484375,-32.2265625,-37.109375,-12.6953125,n/a,
1678447613.260375,-17.578125,-39.0625,-43.45703125,7.32421875,n/a,
1678447613.2642813,-42.96875,-36.62109375,-42.48046875,-33.69140625,n/a,
1678447613.2681875,-39.0625,-28.80859375,-28.3203125,-47.36328125,n/a,
1678447613.2720938,-20.99609375,-32.2265625,-15.625,-17.578125,n/a,
1678447613.274125,-19.53125,-34.1796875,-26.3671875,0.48828125,n/a,
1678447613.2780313,-33.203125,-33.69140625,-40.0390625,-3.90625,n/a,
1678447613.2819376,-55.17578125,-31.73828125,-42.48046875,-41.9921875,n/a,
1678447613.2858438,-48.828125,-31.25,-30.76171875,-43.9453125,n/a,
1678447613.28975,-28.3203125,-40.0390625,-28.80859375,-16.6015625,n/a,
1678447613.2936563,-19.53125,-38.0859375,-33.69140625,-7.8125,n/a,
1678447613.2975626,-20.99609375,-31.25,-28.80859375,-3.90625,n/a,
1678447613.3014688,-30.76171875,-23.4375,-31.73828125,-27.34375,n/a,
1678447613.305375,-27.83203125,-19.53125,-41.015625,-27.83203125,n/a,
1678447613.3092813,-20.5078125,-31.73828125,-47.36328125,-26.85546875,n/a,
1678447613.3131876,-10.25390625,-33.69140625,-49.8046875,-22.94921875,n/a,
1678447613.3170938,-6.34765625,-20.5078125,-38.0859375,3.41796875,n/a,
1678447613.318125,-23.92578125,-10.25390625,-31.73828125,-19.04296875,n/a,
1678447613.3220313,-30.76171875,-16.6015625,-33.69140625,-46.875,n/a,
1678447613.3259375,-21.484375,-20.01953125,-26.85546875,-25.87890625,n/a,
1678447613.3298438,-16.6015625,-18.06640625,-25.390625,-9.27734375,n/a,
1678447613.33375,-18.06640625,-18.06640625,-35.64453125,-2.44140625,n/a,
1678447613.3376563,-23.92578125,-20.99609375,-32.2265625,-9.765625,n/a,
1678447613.3415625,-26.85546875,-28.3203125,-19.53125,-27.34375,n/a,
1678447613.3454688,-14.16015625,-28.80859375,-15.13671875,-18.06640625,n/a,
1678447613.349375,-7.32421875,-39.0625,-20.01953125,-9.765625,n/a,
1678447613.3532813,-9.765625,-41.015625,-30.76171875,-11.71875,n/a,
1678447613.3571875,-19.04296875,-35.15625,-33.69140625,-22.4609375,n/a,
1678447613.3610938,-34.1796875,-26.3671875,-27.34375,-42.48046875,n/a,
1678447613.363125,-22.4609375,-23.92578125,-24.90234375,-26.85546875,n/a,
1678447613.3670313,-5.859375,-18.5546875,-30.76171875,-16.6015625,n/a,
1678447613.3709376,-0.9765625,-12.6953125,-25.87890625,-5.859375,n/a,
1678447613.3748438,-19.04296875,-38.57421875,-21.484375,-16.6015625,n/a,
1678447613.37875,-44.921875,-43.9453125,-32.71484375,-58.59375,n/a,
1678447613.3826563,-34.1796875,-26.3671875,-32.2265625,-47.8515625,n/a,
1678447613.3865626,-21.484375,-25.390625,-30.76171875,-23.92578125,n/a,
1678447613.3904688,-14.16015625,-24.90234375,-33.69140625,-4.39453125,n/a,
1678447613.394375,-25.390625,-28.80859375,-28.80859375,-25.87890625,n/a,
1678447613.3982813,-42.96875,-39.0625,-25.390625,-63.4765625,n/a,
1678447613.4021876,-23.92578125,-41.015625,-27.34375,-30.76171875,n/a,
1678447613.4060938,-15.625,-34.1796875,-25.390625,4.39453125,n/a,
1678447613.409125,-23.92578125,-30.2734375,-26.85546875,-3.90625,n/a,
1678447613.4130313,-25.87890625,-25.390625,-21.97265625,-6.34765625,n/a,
1678447613.4169376,-45.8984375,-21.97265625,-19.53125,-39.0625,n/a,
1678447613.4208438,-44.43359375,-31.25,-32.2265625,-45.41015625,n/a,
1678447613.42475,-23.92578125,-32.2265625,-39.55078125,-22.4609375,n/a,
1678447613.4286563,-19.04296875,-32.71484375,-38.0859375,-15.13671875,n/a,
1678447613.4325626,-20.01953125,-37.59765625,-34.66796875,0.48828125,n/a,
1678447613.4364688,-42.48046875,-25.390625,-32.2265625,-27.83203125,n/a,
1678447613.440375,-44.921875,-25.390625,-32.2265625,-38.57421875,n/a,
1678447613.4442813,-20.01953125,-39.0625,-27.34375,-9.27734375,n/a,
1678447613.4481876,-19.53125,-56.15234375,-18.5546875,-8.30078125,n/a,
1678447613.4520938,-27.34375,-49.8046875,-20.01953125,-3.90625,n/a,
1678447613.455125,-37.59765625,-26.85546875,-27.83203125,-34.1796875,n/a,
1678447613.4590313,-32.71484375,-25.390625,-30.76171875,-39.55078125,n/a,
1678447613.4629376,-24.4140625,-35.64453125,-24.90234375,-12.20703125,n/a,
1678447613.4668438,-28.3203125,-32.2265625,-34.66796875,-17.08984375,n/a,
1678447613.47075,-19.53125,-22.4609375,-44.921875,-11.71875,n/a,
1678447613.4746563,-29.78515625,-26.85546875,-27.34375,-36.62109375,n/a,
1678447613.4785626,-30.76171875,-26.85546875,-18.06640625,-48.33984375,n/a,
1678447613.4824688,-11.23046875,-35.15625,-29.78515625,-22.4609375,n/a,
1678447613.486375,-12.20703125,-42.48046875,-37.109375,-16.6015625,n/a,
1678447613.4902813,-11.23046875,-41.015625,-35.15625,-8.30078125,n/a,
1678447613.4941876,-25.87890625,-27.34375,-24.90234375,-23.92578125,n/a,
1678447613.4980938,-42.96875,-26.3671875,-25.390625,-54.19921875,n/a,
1678447613.514125,-21.484375,-24.4140625,-22.94921875,-31.25,n/a,
1678447613.5180314,-4.39453125,-16.11328125,-20.5078125,-8.7890625,n/a,
1678447613.5219376,-9.765625,-30.76171875,-30.76171875,-3.90625,n/a,
1678447613.5258439,-31.25,-29.78515625,-29.296875,-29.78515625,n/a,
1678447613.52975,-42.96875,-20.5078125,-24.4140625,-46.38671875,n/a,
1678447613.5336564,-22.94921875,-28.80859375,-30.2734375,-15.625,n/a,
1678447613.5375626,-15.625,-37.109375,-32.2265625,-10.25390625,n/a,
1678447613.5414689,-20.5078125,-33.203125,-30.2734375,-10.7421875,n/a,
1678447613.545375,-30.2734375,-24.4140625,-35.15625,-25.87890625,n/a,
1678447613.5492814,-30.2734375,-19.04296875,-35.64453125,-41.50390625,n/a,
1678447613.5531876,-14.16015625,-33.69140625,-33.69140625,-29.296875,n/a,
1678447613.5570939,-4.39453125,-35.15625,-40.52734375,-21.97265625,n/a,
1678447613.558125,-1.953125,-24.90234375,-47.8515625,-6.8359375,n/a,
1678447613.5620313,-15.13671875,-27.83203125,-40.52734375,-20.5078125,n/a,
1678447613.5659375,-32.2265625,-25.87890625,-35.64453125,-57.6171875,n/a,
1678447613.5698438,-21.484375,-27.34375,-42.96875,-44.43359375,n/a,
1678447613.57375,-7.32421875,-24.4140625,-44.43359375,-20.01953125,n/a,
1678447613.5776563,-1.953125,-24.4140625,-35.15625,-7.32421875,n/a,
1678447613.5815625,-14.6484375,-26.85546875,-31.73828125,-13.18359375,n/a,
1678447613.5854688,-41.015625,-33.203125,-35.15625,-46.38671875,n/a,
1678447613.589375,-22.4609375,-42.96875,-32.71484375,-30.2734375,n/a,
1678447613.5932813,-2.9296875,-33.69140625,-28.80859375,9.765625,n/a,
1678447613.5971875,-19.04296875,-37.59765625,-37.59765625,7.32421875,n/a,
1678447613.6010938,-31.25,-41.50390625,-34.66796875,-11.71875,n/a,
1678447613.605125,-39.0625,-31.25,-30.76171875,-36.1328125,n/a,
1678447613.6090312,-26.85546875,-29.78515625,-36.1328125,-24.90234375,n/a,
1678447613.6129375,-6.34765625,-25.390625,-28.80859375,0.0,n/a,
1678447613.6168437,-8.30078125,-34.66796875,-24.4140625,3.41796875,n/a,
1678447613.62075,-15.13671875,-41.50390625,-29.78515625,0.9765625,n/a,
1678447613.6246562,-30.76171875,-23.4375,-26.3671875,-27.34375,left arrow,1678447613.623877
1678447613.6285625,-32.2265625,-18.5546875,-24.4140625,-30.2734375,n/a,
1678447613.6324687,-10.7421875,-20.5078125,-24.4140625,-7.8125,n/a,
1678447613.636375,-3.90625,-25.390625,-21.484375,2.44140625,n/a,
1678447613.6402812,-14.16015625,-30.2734375,-24.4140625,0.48828125,n/a,
1678447613.6441875,-29.296875,-26.85546875,-27.34375,-36.62109375,n/a,
1678447613.6480937,-23.92578125,-27.34375,-28.3203125,-43.45703125,n/a,
1678447613.650125,-2.44140625,-26.3671875,-25.87890625,-0.9765625,n/a,
1678447613.6540313,-3.41796875,-26.3671875,-26.85546875,-0.48828125,n/a,
1678447613.6579375,-12.20703125,-35.64453125,-23.92578125,-8.7890625,n/a,
1678447613.6618438,-23.92578125,-38.57421875,-19.53125,-28.80859375,n/a,
1678447613.66575,-26.85546875,-41.015625,-29.296875,-47.8515625,n/a,
1678447613.6696563,-12.6953125,-38.0859375,-29.296875,-26.85546875,n/a,
1678447613.6735625,-6.8359375,-37.59765625,-28.80859375,-8.30078125,n/a,
1678447613.6774688,-9.765625,-33.203125,-27.34375,3.90625,n/a,
1678447613.681375,-19.04296875,-15.625,-19.04296875,-11.71875,n/a,
1678447613.6852813,-29.296875,-17.578125,-23.4375,-39.0625,n/a,
1678447613.6891875,-21.97265625,-23.4375,-31.73828125,-32.71484375,n/a,
1678447613.6930938,-16.6015625,-27.83203125,-29.296875,-17.578125,n/a,
1678447613.694125,-20.01953125,-36.1328125,-21.484375,-5.37109375,n/a,
1678447613.6980312,-39.0625,-34.1796875,-22.4609375,-34.66796875,n/a,
1678447613.7019374,-47.36328125,-36.1328125,-23.4375,-58.10546875,n/a,
1678447613.7058437,-28.80859375,-36.1328125,-22.4609375,-30.2734375,n/a,
1678447613.70975,-18.5546875,-35.64453125,-32.2265625,-17.08984375,n/a,
1678447613.7136562,-10.7421875,-41.015625,-29.78515625,-0.48828125,n/a,
1678447613.7175624,-16.11328125,-34.1796875,-18.06640625,-6.34765625,n/a,
1678447613.7214687,-18.5546875,-35.15625,-22.4609375,-28.80859375,n/a,
1678447613.725375,-10.25390625,-24.4140625,-27.83203125,-20.99609375,n/a,
1678447613.7292812,-15.625,-17.578125,-17.08984375,-16.11328125,n/a,
1678447613.7331874,-14.16015625,-22.4609375,-16.11328125,-0.9765625,n/a,
1678447613.7370937,-27.34375,-24.4140625,-21.97265625,-17.578125,n/a,
1678447613.739125,-49.8046875,-27.34375,-19.53125,-59.08203125,n/a,
1678447613.7430313,-41.50390625,-22.94921875,-23.92578125,-45.41015625,n/a,
1678447613.7469375,-27.83203125,-35.15625,-26.85546875,-25.87890625,n/a,
1678447613.7508438,-23.92578125,-36.1328125,-22.94921875,-8.30078125,n/a,
1678447613.75475,-35.15625,-27.83203125,-22.94921875,-8.30078125,n/a,
1678447613.7586563,-51.26953125,-33.203125,-23.4375,-46.875,n/a,
1678447613.7625625,-23.92578125,-28.3203125,-32.2265625,-26.3671875,n/a,
1678447613.7664688,8.30078125,-29.296875,-40.0390625,14.6484375,n/a,
1678447613.770375,-14.16015625,-39.0625,-26.3671875,7.8125,n/a,
1678447613.7742813,-47.8515625,-26.85546875,-19.04296875,-17.08984375,n/a,
1678447613.7781875,-62.5,-15.13671875,-26.3671875,-45.41015625,n/a,
1678447613.7820938,-48.828125,-31.73828125,-24.90234375,-19.53125,n/a,
1678447613.784125,-41.015625,-39.55078125,-22.94921875,-14.6484375,n/a,
1678447613.7880313,-34.66796875,-24.4140625,-25.87890625,-25.87890625,n/a,
1678447613.7919376,-22.4609375,-24.4140625,-32.2265625,-11.23046875,n/a,
1678447613.7958438,-45.8984375,-38.0859375,-32.2265625,-47.8515625,n/a,
1678447613.79975,-46.875,-36.62109375,-23.4375,-52.24609375,n/a,
1678447613.8036563,-25.87890625,-40.0390625,-19.53125,-20.01953125,n/a,
1678447613.8075626,-24.4140625,-50.78125,-20.99609375,-8.30078125,n/a,
1678447613.8114688,-32.2265625,-52.734375,-26.85546875,-9.27734375,n/a,
1678447613.815375,-59.08203125,-42.48046875,-33.203125,-60.05859375,n/a,
1678447613.8192813,-53.22265625,-32.71484375,-28.80859375,-67.87109375,n/a,
1678447613.8231876,-24.90234375,-41.9921875,-28.3203125,-27.34375,n/a,
1678447613.8270938,-22.4609375,-46.38671875,-35.64453125,-23.4375,n/a,
1678447613.829125,-23.92578125,-27.83203125,-37.109375,-17.578125,n/a,
1678447613.8330312,-43.45703125,-20.01953125,-38.57421875,-46.38671875,n/a,
1678447613.8369374,-47.36328125,-20.01953125,-34.1796875,-62.01171875,n/a,
1678447613.8408437,-30.76171875,-30.2734375,-33.203125,-34.1796875,n/a,
1678447613.84475,-26.85546875,-41.9921875,-41.9921875,-17.578125,n/a,
1678447613.8486562,-5.859375,-36.1328125,-34.66796875,8.7890625,n/a,
1678447613.8525624,-18.5546875,-29.296875,-19.04296875,-7.8125,n/a,
1678447613.8564687,-42.48046875,-33.203125,-24.90234375,-40.0390625,n/a,
1678447613.860375,-21.97265625,-29.78515625,-25.87890625,-22.94921875,n/a,
1678447613.8642812,-6.34765625,-25.390625,-15.13671875,0.0,n/a,
1678447613.8681874,-8.30078125,-20.5078125,-14.6484375,18.06640625,n/a,
1678447613.8720937,-32.2265625,-32.2265625,-30.2734375,-26.3671875,n/a,
1678447613.888125,-40.52734375,-35.15625,-32.2265625,-54.19921875,n/a,
1678447613.8920312,-21.484375,-28.3203125,-27.83203125,-20.99609375,n/a,
1678447613.8959374,-24.4140625,-28.80859375,-31.25,-12.20703125,n/a,
1678447613.8998437,-19.53125,-34.1796875,-26.3671875,-9.27734375,n/a,
1678447613.90375,-27.34375,-41.50390625,-21.97265625,-19.04296875,n/a,
1678447613.9076562,-40.0390625,-32.2265625,-30.2734375,-39.0625,n/a,
1678447613.9115624,-22.94921875,-34.1796875,-30.2734375,-27.34375,n/a,
1678447613.9154687,-16.6015625,-28.3203125,-22.4609375,-17.08984375,n/a,
1678447613.919375,-12.20703125,-11.71875,-19.04296875,-1.46484375,n/a,
1678447613.9232812,-21.97265625,-23.92578125,-22.94921875,-7.32421875,n/a,
1678447613.9271874,-42.96875,-38.0859375,-26.85546875,-44.921875,n/a,
1678447613.9310937,-27.83203125,-36.1328125,-26.85546875,-30.76171875,n/a,
1678447613.933125,-11.23046875,-27.83203125,-27.34375,-9.27734375,n/a,
1678447613.9370313,-4.8828125,-20.01953125,-24.90234375,10.25390625,n/a,
1678447613.9409375,-22.4609375,-29.296875,-23.92578125,0.48828125,n/a,
1678447613.9448438,-38.57421875,-41.9921875,-19.04296875,-42.96875,n/a,
1678447613.94875,-21.97265625,-32.71484375,-21.484375,-27.83203125,n/a,
1678447613.9526563,-15.13671875,-20.5078125,-22.94921875,-8.7890625,n/a,
1678447613.9565625,-20.5078125,-24.90234375,-16.6015625,-8.30078125,n/a,
1678447613.9604688,-27.83203125,-23.4375,-18.06640625,-11.23046875,n/a,
1678447613.964375,-36.1328125,-16.6015625,-21.484375,-42.48046875,n/a,
1678447613.9682813,-26.85546875,-23.92578125,-20.5078125,-20.5078125,n/a,
1678447613.9721875,-27.83203125,-34.1796875,-32.2265625,-14.16015625,n/a,
1678447613.9760938,-27.83203125,-25.87890625,-37.59765625,-29.296875,n/a,
1678447613.980125,-19.04296875,-19.53125,-26.85546875,-13.18359375,n/a,
1678447613.9840312,-33.69140625,-30.2734375,-21.97265625,-42.48046875,n/a,
1678447613.9879375,-37.59765625,-39.55078125,-27.34375,-50.78125,n/a,
1678447613.9918437,-22.94921875,-37.59765625,-31.73828125,-24.4140625,n/a,
1678447613.99575,-17.08984375,-25.87890625,-24.90234375,-10.25390625,n/a,
1678447613.9996562,-18.5546875,-21.97265625,-29.78515625,-6.34765625,n/a,
1678447614.0035625,-35.15625,-22.94921875,-28.80859375,-47.36328125,n/a,
1678447614.0074687,-39.0625,-19.04296875,-22.4609375,-57.12890625,n/a,
1678447614.011375,-15.625,-24.4140625,-23.92578125,-14.6484375,n/a,
1678447614.0152812,-10.7421875,-35.15625,-28.3203125,-1.953125,n/a,
1678447614.0191875,-26.3671875,-33.203125,-33.203125,-16.11328125,n/a,
1678447614.0230937,-42.96875,-25.87890625,-32.71484375,-46.38671875,n/a,
1678447614.025125,-40.52734375,-30.2734375,-34.1796875,-56.15234375,n/a,
1678447614.0290313,-23.92578125,-37.59765625,-41.015625,-35.15625,n/a,
1678447614.0329375,-16.6015625,-41.015625,-45.8984375,-18.06640625,n/a,
1678447614.0368438,-17.08984375,-48.828125,-36.1328125,-11.71875,n/a,
1678447614.04075,-30.76171875,-53.22265625,-28.3203125,-33.203125,n/a,
1678447614.0446563,-34.1796875,-34.1796875,-30.76171875,-43.9453125,n/a,
1678447614.0485625,-18.06640625,-29.78515625,-44.921875,-25.87890625,n/a,
1678447614.0524688,-8.7890625,-30.2734375,-39.0625,-14.16015625,n/a,
1678447614.056375,-8.7890625,-29.78515625,-27.34375,3.41796875,n/a,
1678447614.0602813,-35.15625,-34.1796875,-32.71484375,-32.71484375,n/a,
1678447614.0641875,-52.734375,-33.203125,-41.50390625,-69.82421875,n/a,
1678447614.0680938,-23.92578125,-38.0859375,-40.0390625,-34.1796875,n/a,
1678447614.070125,-11.23046875,-37.59765625,-31.25,-11.23046875,n/a,
1678447614.0740314,-20.01953125,-32.71484375,-30.2734375,-12.20703125,n/a,
1678447614.0779376,-32.2265625,-29.296875,-27.34375,-27.83203125,n/a,
1678447614.0818439,-42.48046875,-30.2734375,-27.34375,-49.31640625,n/a,
1678447614.08575,-28.80859375,-40.0390625,-43.45703125,-36.1328125,n/a,
1678447614.0896564,-18.06640625,-33.203125,-52.24609375,-25.390625,n/a,
1678447614.0935626,-15.13671875,-23.92578125,-41.9921875,-14.6484375,n/a,
1678447614.0974689,-24.4140625,-17.578125,-25.87890625,-14.16015625,n/a,
1678447614.101375,-41.50390625,-28.80859375,-24.4140625,-41.50390625,n/a,
1678447614.1052814,-32.71484375,-48.828125,-29.78515625,-34.1796875,n/a,
1678447614.1091876,-19.04296875,-43.45703125,-28.80859375,-15.13671875,n/a,
1678447614.1130939,-13.18359375,-29.78515625,-36.1328125,-6.34765625,n/a,
1678447614.115125,-25.87890625,-33.203125,-43.45703125,-17.578125,n/a,
1678447614.1190312,-43.45703125,-39.55078125,-35.64453125,-47.36328125,n/a,
1678447614.1229374,-25.390625,-32.71484375,-26.3671875,-30.76171875,n/a,
1678447614.1268437,-14.6484375,-22.94921875,-27.83203125,-9.765625,n/a,
1678447614.13075,-22.94921875,-22.94921875,-29.296875,-9.27734375,n/a,
1678447614.1346562,-28.80859375,-28.3203125,-28.80859375,-11.71875,n/a,
1678447614.1385624,-35.64453125,-34.1796875,-22.94921875,-41.015625,n/a,
1678447614.1424687,-27.83203125,-45.8984375,-16.6015625,-33.203125,n/a,
1678447614.146375,-22.94921875,-35.15625,-30.2734375,-18.06640625,n/a,
1678447614.1502812,-24.90234375,-20.01953125,-53.7109375,-17.08984375,n/a,
1678447614.1541874,-27.83203125,-26.85546875,-41.9921875,-10.7421875,n/a,
1678447614.1580937,-41.9921875,-29.296875,-17.08984375,-38.57421875,n/a,
1678447614.159125,-40.0390625,-41.9921875,-22.4609375,-45.8984375,n/a,
1678447614.1630313,-20.01953125,-40.52734375,-24.90234375,-13.18359375,n/a,
1678447614.1669376,-16.11328125,-21.97265625,-20.5078125,-2.44140625,n/a,
1678447614.1708438,-23.92578125,-16.6015625,-14.6484375,-7.32421875,n/a,
1678447614.17475,-42.48046875,-21.97265625,-11.23046875,-43.9453125,n/a,
1678447614.1786563,-39.0625,-24.4140625,-17.08984375,-47.36328125,n/a,
1678447614.1825626,-13.671875,-23.4375,-25.390625,-2.9296875,n/a,
1678447614.1864688,-13.18359375,-23.92578125,-31.73828125,2.44140625,n/a,
1678447614.190375,-22.4609375,-19.04296875,-40.52734375,-9.27734375,n/a,
1678447614.1942813,-31.73828125,-17.578125,-34.1796875,-30.76171875,n/a,
1678447614.1981876,-36.1328125,-32.71484375,-29.78515625,-41.015625,n/a,
1678447614.2020938,-22.94921875,-37.109375,-38.0859375,-24.4140625,n/a,
1678447614.204125,-13.671875,-25.87890625,-34.66796875,-14.16015625,n/a,
1678447614.2080312,-10.25390625,-24.4140625,-41.9921875,-6.34765625,n/a,
1678447614.2119374,-23.4375,-27.34375,-41.9921875,-28.3203125,n/a,
1678447614.2158437,-44.921875,-21.484375,-33.203125,-47.36328125,n/a,
1678447614.21975,-26.3671875,-23.4375,-27.34375,-14.16015625,n/a,
1678447614.2236562,0.0,-36.1328125,-23.4375,20.01953125,n/a,
1678447614.2275624,-20.01953125,-25.390625,-29.296875,7.32421875,n/a,
1678447614.2314687,-53.22265625,-16.11328125,-31.73828125,-42.96875,n/a,
1678447614.235375,-48.33984375,-15.625,-29.296875,-56.640625,n/a,
1678447614.2392812,-37.59765625,-13.671875,-32.71484375,-31.73828125,n/a,
1678447614.2431874,-25.87890625,-15.13671875,-32.2265625,-0.48828125,n/a,
1678447614.2470937,-33.203125,-25.390625,-37.109375,-10.25390625,n/a,
1678447614.264125,-57.6171875,-35.64453125,-42.48046875,-49.8046875,n/a,
1678447614.2680314,-57.6171875,-38.57421875,-38.57421875,-65.4296875,n/a,
1678447614.2719376,-31.25,-35.15625,-41.015625,-48.33984375,n/a,
1678447614.2758439,-21.484375,-32.71484375,-47.36328125,-33.69140625,n/a,
1678447614.27975,-21.484375,-35.15625,-36.1328125,-20.01953125,n/a,
1678447614.2836564,-20.01953125,-20.01953125,-28.3203125,-21.484375,n/a,
1678447614.2875626,-34.1796875,-6.34765625,-34.66796875,-54.19921875,n/a,
1678447614.2914689,-30.76171875,-23.4375,-41.015625,-43.9453125,n/a,
1678447614.295375,-18.5546875,-42.48046875,-36.62109375,-22.4609375,n/a,
1678447614.2992814,-12.6953125,-34.1796875,-22.4609375,0.9765625,n/a,
1678447614.3031876,-36.1328125,-32.71484375,-23.92578125,-9.27734375,n/a,
1678447614.3070939,-59.5703125,-37.109375,-25.390625,-51.7578125,n/a,
1678447614.309125,-44.921875,-31.73828125,-25.390625,-33.203125,n/a,
1678447614.3130312,-35.64453125,-27.34375,-31.73828125,-11.71875,n/a,
1678447614.3169374,-32.2265625,-16.6015625,-34.1796875,-10.7421875,n/a,
1678447614.3208437,-38.57421875,-14.16015625,-33.69140625,-11.71875,n/a,
1678447614.32475,-47.8515625,-16.6015625,-27.34375,-33.203125,n/a,
1678447614.3286562,-39.55078125,-16.11328125,-31.25,-38.57421875,n/a,
1678447614.3325624,-22.94921875,-22.94921875,-43.9453125,-20.99609375,n/a,
1678447614.3364687,-18.06640625,-36.62109375,-41.015625,-5.859375,n/a,
1678447614.340375,-20.99609375,-33.203125,-28.3203125,3.90625,n/a,
1678447614.3442812,-33.69140625,-15.625,-29.296875,-12.6953125,n/a,
1678447614.3481874,-43.9453125,-21.97265625,-37.109375,-31.73828125,n/a,
1678447614.3520937,-26.3671875,-34.1796875,-32.2265625,-13.671875,n/a,
1678447614.354125,-7.32421875,-37.59765625,-20.99609375,4.8828125,n/a,
1678447614.3580313,-11.23046875,-43.45703125,-18.5546875,14.6484375,n/a,
1678447614.3619375,-32.2265625,-31.73828125,-22.4609375,-17.08984375,n/a,
1678447614.3658438,-31.73828125,-1.953125,-23.92578125,-28.3203125,n/a,
1678447614.36975,-13.671875,10.7421875,-18.5546875,4.8828125,n/a,
1678447614.3736563,-12.20703125,-5.859375,-21.484375,9.765625,n/a,
1678447614.3775625,-16.11328125,-18.06640625,-27.34375,8.7890625,n/a,
1678447614.3814688,-30.2734375,-11.71875,-18.5546875,-19.04296875,n/a,
1678447614.385375,-29.78515625,-12.6953125,-9.27734375,-18.06640625,n/a,
1678447614.3892813,-22.4609375,-21.484375,-24.4140625,5.859375,n/a,
1678447614.3931875,-23.92578125,-26.3671875,-40.0390625,0.9765625,n/a,
1678447614.3970938,-17.08984375,-27.83203125,-27.83203125,8.7890625,n/a,
1678447614.399125,-38.57421875,-23.4375,-17.578125,-22.94921875,n/a,
1678447614.4030313,-46.875,-20.5078125,-24.4140625,-36.62109375,n/a,
1678447614.4069376,-27.34375,-28.3203125,-28.80859375,-13.18359375,n/a,
1678447614.4108438,-19.04296875,-28.3203125,-27.34375,0.48828125,n/a,
1678447614.41475,-18.06640625,-15.625,-23.4375,10.7421875,n/a,
1678447614.4186563,-30.76171875,-6.34765625,-22.94921875,-10.7421875,n/a,
1678447614.4225626,-30.2734375,-6.34765625,-30.2734375,-26.3671875,n/a,
1678447614.4264688,-13.18359375,-13.671875,-28.3203125,-4.39453125,n/a,
1678447614.430375,-0.9765625,-25.390625,-25.390625,21.484375,n/a,
1678447614.4342813,-1.46484375,-38.57421875,-33.69140625,30.2734375,n/a,
1678447614.4381876,-28.3203125,-32.2265625,-40.52734375,-12.20703125,n/a,
1678447614.4420938,-36.62109375,-15.625,-32.2265625,-38.0859375,n/a,
1678447614.443125,-21.484375,-19.04296875,-28.80859375,-15.13671875,n/a,
1678447614.4470313,-17.578125,-25.87890625,-40.52734375,-9.27734375,n/a,
1678447614.4509375,-11.23046875,-23.92578125,-35.15625,3.41796875,n/a,
1678447614.4548438,-18.06640625,-21.97265625,-22.94921875,-5.859375,n/a,
1678447614.45875,-30.76171875,-20.99609375,-16.6015625,-35.15625,n/a,
1678447614.4626563,-16.6015625,-25.87890625,-17.08984375,-16.6015625,n/a,
1678447614.4665625,-4.8828125,-31.73828125,-25.390625,-4.39453125,n/a,
1678447614.4704688,1.46484375,-29.78515625,-28.80859375,5.37109375,n/a,
1678447614.474375,-8.7890625,-25.87890625,-35.64453125,-9.27734375,n/a,
1678447614.4782813,-31.25,-33.69140625,-41.9921875,-50.78125,n/a,
1678447614.4821875,-21.484375,-34.1796875,-40.0390625,-37.59765625,blue,1678447614.4797246
1678447614.4860938,-3.41796875,-20.99609375,-35.64453125,-4.39453125,n/a,
1678447614.489125,-11.23046875,-24.90234375,-41.9921875,-6.34765625,n/a,
1678447614.4930313,-31.25,-31.25,-37.59765625,-21.484375,n/a,
1678447614.4969375,-44.921875,-27.34375,-31.73828125,-51.26953125,n/a,
1678447614.5008438,-28.3203125,-30.76171875,-29.78515625,-44.43359375,n/a,
1678447614.50475,-12.6953125,-37.109375,-23.92578125,-29.296875,n/a,
1678447614.5086563,-18.06640625,-29.296875,-24.90234375,-35.15625,n/a,
1678447614.5125625,-16.11328125,-21.97265625,-25.87890625,-19.04296875,n/a,
1678447614.5164688,-31.73828125,-20.99609375,-28.80859375,-41.015625,n/a,
1678447614.520375,-35.64453125,-33.69140625,-35.15625,-63.4765625,n/a,
1678447614.5242813,-13.18359375,-29.78515625,-34.66796875,-37.59765625,n/a,
1678447614.5281875,-0.9765625,-14.6484375,-34.1796875,-11.23046875,n/a,
1678447614.5320938,-8.7890625,-27.83203125,-36.62109375,-9.27734375,n/a,
1678447614.549125,-33.69140625,-36.1328125,-35.64453125,-46.875,n/a,
1678447614.5530312,-29.296875,-29.296875,-31.73828125,-51.26953125,n/a,
1678447614.5569375,-8.30078125,-28.3203125,-24.90234375,-12.20703125,n/a,
1678447614.5608437,-7.8125,-30.76171875,-28.80859375,-1.953125,n/a,
1678447614.56475,-13.18359375,-28.3203125,-36.62109375,-8.7890625,n/a,
1678447614.5686562,-21.484375,-16.6015625,-30.2734375,-29.296875,n/a,
1678447614.5725625,-18.06640625,-13.671875,-27.83203125,-33.69140625,n/a,
1678447614.5764687,-0.9765625,-25.87890625,-41.50390625,-9.27734375,n/a,
1678447614.580375,-0.48828125,-44.921875,-45.41015625,-13.18359375,n/a,
1678447614.5842812,-4.8828125,-30.2734375,-39.0625,-5.37109375,n/a,
1678447614.5881875,-24.4140625,-20.5078125,-38.0859375,-31.73828125,n/a,
1678447614.5920937,-31.73828125,-29.78515625,-41.50390625,-59.5703125,n/a,
1678447614.579125,-18.06640625,-32.71484375,-42.96875,-30.76171875,n/a,
1678447614.5830312,-14.16015625,-29.78515625,-37.109375,-16.11328125,n/a,
1678447614.5869374,-15.625,-23.92578125,-28.3203125,-11.71875,n/a,
1678447614.5908437,-22.94921875,-20.99609375,-19.53125,-33.203125,n/a,
1678447614.59475,-25.390625,-25.87890625,-20.01953125,-56.15234375,n/a,
1678447614.5986562,-8.7890625,-16.6015625,-27.34375,-30.2734375,n/a,
1678447614.6025624,-3.41796875,-20.01953125,-26.85546875,-7.8125,n/a,
1678447614.6064687,-9.765625,-37.109375,-34.1796875,-2.44140625,n/a,
1678447614.610375,-24.90234375,-36.1328125,-42.48046875,-22.94921875,n/a,
1678447614.6142812,-29.296875,-29.78515625,-29.78515625,-39.55078125,n/a,
1678447614.6181874,-0.9765625,-22.4609375,-27.34375,3.90625,n/a,
1678447614.6220937,-2.9296875,-31.25,-38.57421875,7.32421875,n/a,
1678447614.639125,-17.08984375,-44.43359375,-39.55078125,-10.7421875,n/a,
1678447614.6430314,-24.4140625,-42.48046875,-22.4609375,-23.4375,n/a,
1678447614.6469376,-41.9921875,-35.64453125,-20.01953125,-51.26953125,n/a,
1678447614.6508439,-32.71484375,-28.3203125,-30.2734375,-34.1796875,n/a,
1678447614.65475,-11.23046875,-22.4609375,-30.2734375,-7.8125,n/a,
1678447614.6586564,-0.9765625,-16.11328125,-27.83203125,11.23046875,n/a,
1678447614.6625626,-14.6484375,-16.6015625,-29.78515625,0.0,n/a,
1678447614.6664689,-36.62109375,-32.2265625,-30.2734375,-39.55078125,n/a,
1678447614.670375,-24.90234375,-37.109375,-26.85546875,-28.3203125,n/a,
1678447614.6742814,-5.37109375,-44.43359375,-17.578125,10.7421875,n/a,
1678447614.6781876,-4.8828125,-51.26953125,-23.4375,15.625,n/a,
1678447614.6820939,-9.27734375,-30.2734375,-27.83203125,2.9296875,n/a,
1678447614.684125,-24.90234375,-15.625,-18.06640625,-25.87890625,n/a,
1678447614.6880312,-9.27734375,-18.5546875,-20.5078125,-11.71875,n/a,
1678447614.6919374,2.9296875,-27.83203125,-34.1796875,-5.37109375,n/a,
1678447614.6958437,-4.39453125,-34.66796875,-29.78515625,-17.578125,n/a,
1678447614.69975,-9.765625,-25.390625,-25.87890625,-12.6953125,n/a,
1678447614.7036562,-30.76171875,-23.92578125,-31.73828125,-35.64453125,n/a,
1678447614.7075624,-27.83203125,-26.85546875,-27.83203125,-42.48046875,n/a,
1678447614.7114687,-13.671875,-32.71484375,-32.2265625,-29.296875,n/a,
1678447614.715375,-13.18359375,-45.41015625,-30.2734375,-15.625,n/a,
1678447614.7192812,-14.6484375,-40.0390625,-15.625,4.39453125,n/a,
1678447614.7231874,-41.9921875,-39.0625,-21.97265625,-41.9921875,n/a,
1678447614.7270937,-50.78125,-36.1328125,-28.3203125,-66.89453125,n/a,
1678447614.729125,-28.80859375,-34.1796875,-20.99609375,-37.109375,n/a,
1678447614.7330313,-26.3671875,-49.31640625,-20.99609375,-33.69140625,n/a,
1678447614.7369375,-34.66796875,-38.57421875,-28.3203125,-32.2265625,n/a,
1678447614.7408438,-47.36328125,-22.4609375,-25.87890625,-48.828125,n/a,
1678447614.74475,-41.50390625,-31.73828125,-30.2734375,-55.6640625,n/a,
1678447614.7486563,-23.4375,-37.109375,-41.9921875,-22.4609375,n/a,
1678447614.7525625,-12.20703125,-33.69140625,-35.64453125,-3.90625,n/a,
1678447614.7564688,-18.06640625,-41.9921875,-29.296875,-2.9296875,n/a,
1678447614.760375,-36.1328125,-37.109375,-33.203125,-21.484375,n/a,
1678447614.7642813,-39.55078125,-30.2734375,-33.203125,-35.64453125,n/a,
1678447614.7681875,-30.76171875,-37.109375,-26.85546875,-24.4140625,n/a,
1678447614.7720938,-22.94921875,-40.0390625,-30.76171875,-13.671875,n/a,
1678447614.774125,-22.4609375,-40.0390625,-43.45703125,-3.90625,n/a,
1678447614.7780313,-36.62109375,-23.4375,-35.64453125,-24.4140625,n/a,
1678447614.7819376,-36.1328125,-15.13671875,-23.4375,-39.55078125,n/a,
1678447614.7858438,-14.6484375,-29.296875,-27.34375,-14.6484375,n/a,
1678447614.78975,-7.32421875,-27.83203125,-32.71484375,-1.46484375,n/a,
1678447614.7936563,-13.18359375,-22.4609375,-33.69140625,3.41796875,n/a,
1678447614.7975626,-35.64453125,-27.34375,-28.80859375,-16.6015625,n/a,
1678447614.8014688,-49.8046875,-23.4375,-30.2734375,-36.1328125,n/a,
1678447614.805375,-32.2265625,-20.5078125,-31.73828125,-7.8125,n/a,
1678447614.8092813,-29.78515625,-26.3671875,-34.1796875,-7.8125,n/a,
1678447614.8131876,-34.66796875,-43.45703125,-44.921875,-10.25390625,n/a,
1678447614.8170938,-46.38671875,-59.5703125,-39.55078125,-20.5078125,n/a,
1678447614.819125,-61.03515625,-48.33984375,-25.87890625,-51.26953125,n/a,
1678447614.8230312,-49.31640625,-31.25,-30.76171875,-39.0625,n/a,
1678447614.8269374,-32.2265625,-24.4140625,-36.1328125,-21.484375,n/a,
1678447614.8308437,-21.484375,-33.69140625,-30.2734375,-3.41796875,n/a,
1678447614.83475,-30.2734375,-38.0859375,-22.4609375,-10.25390625,n/a,
1678447614.8386562,-49.8046875,-32.2265625,-20.5078125,-51.7578125,n/a,
1678447614.8425624,-40.52734375,-29.78515625,-30.2734375,-46.875,n/a,
1678447614.8464687,-16.6015625,-19.53125,-29.296875,-14.16015625,n/a,
1678447614.850375,-17.08984375,-20.99609375,-26.3671875,-4.8828125,n/a,
1678447614.8542812,-41.50390625,-27.83203125,-36.1328125,-27.83203125,n/a,
1678447614.8581874,-55.6640625,-36.1328125,-37.109375,-58.59375,n/a,
1678447614.8620937,-46.875,-28.80859375,-39.0625,-47.36328125,n/a,
1678447614.864125,-29.296875,-21.484375,-38.57421875,-24.4140625,n/a,
1678447614.8680313,-18.06640625,-36.1328125,-40.0390625,-13.18359375,n/a,
1678447614.8719375,-25.390625,-38.57421875,-43.9453125,-6.8359375,n/a,
1678447614.8758438,-45.8984375,-36.1328125,-37.59765625,-40.52734375,n/a,
1678447614.87975,-43.9453125,-30.2734375,-42.96875,-47.36328125,n/a,
1678447614.8836563,-20.5078125,-31.25,-36.1328125,-19.04296875,n/a,
1678447614.8875625,-12.20703125,-47.36328125,-28.3203125,-3.41796875,n/a,
1678447614.8914688,-11.23046875,-31.73828125,-31.25,15.13671875,n/a,
1678447614.895375,-32.71484375,-17.578125,-30.76171875,-26.3671875,n/a,
1678447614.8992813,-33.69140625,-25.390625,-31.25,-49.31640625,n/a,
1678447614.9031875,-13.18359375,-35.64453125,-33.203125,-20.5078125,n/a,
1678447614.9070938,-8.7890625,-39.55078125,-30.2734375,-2.9296875,n/a,
1678447614.909125,-16.6015625,-42.96875,-33.69140625,-3.90625,n/a,
1678447614.9130313,-30.76171875,-35.15625,-33.69140625,-33.69140625,n/a,
1678447614.9169376,-25.87890625,-26.85546875,-28.3203125,-46.875,n/a,
1678447614.9208438,11.23046875,-28.80859375,-27.83203125,-5.37109375,n/a,
1678447614.92475,19.53125,-28.3203125,-25.87890625,16.11328125,n/a,
1678447614.9286563,-17.08984375,-30.76171875,-16.6015625,-8.7890625,n/a,
1678447614.9325626,-44.921875,-30.76171875,-12.6953125,-39.0625,n/a,
1678447614.9364688,-50.78125,-35.15625,-12.20703125,-41.9921875,n/a,
1678447614.940375,-58.10546875,-37.59765625,-19.53125,-38.57421875,n/a,
1678447614.9442813,-56.640625,-30.2734375,-21.484375,-35.64453125,n/a,
1678447614.9481876,-38.57421875,-30.2734375,-23.92578125,-9.765625,n/a,
1678447614.9520938,-62.5,-35.15625,-30.76171875,-36.62109375,n/a,
1678447614.970125,-81.54296875,-38.57421875,-28.80859375,-67.87109375,n/a,
1678447614.9740312,-53.22265625,-49.8046875,-20.99609375,-33.69140625,n/a,
1678447614.9779375,-39.55078125,-45.8984375,-21.484375,-18.5546875,n/a,
1678447614.9818437,-46.38671875,-37.59765625,-32.2265625,-22.94921875,n/a,
1678447614.98575,-54.19921875,-42.96875,-25.390625,-39.55078125,n/a,
1678447614.9896562,-50.29296875,-43.9453125,-16.11328125,-49.31640625,n/a,
1678447614.9935625,-37.59765625,-34.66796875,-26.3671875,-34.1796875,n/a,
1678447614.9974687,-34.1796875,-31.25,-39.0625,-27.34375,n/a,
1678447615.001375,-32.2265625,-38.57421875,-37.109375,-8.30078125,n/a,
1678447615.0052812,-36.1328125,-33.203125,-21.484375,-15.625,n/a,
1678447615.0091875,-45.8984375,-26.3671875,-14.16015625,-40.52734375,n/a,
1678447615.0130937,-37.109375,-35.15625,-26.85546875,-43.45703125,n/a,
1678447615.014125,-27.83203125,-42.96875,-29.78515625,-41.9921875,n/a,
1678447615.0180314,-22.94921875,-42.96875,-31.25,-22.4609375,n/a,
1678447615.0219376,-27.34375,-43.45703125,-29.296875,-30.2734375,n/a,
1678447615.0258439,-38.0859375,-38.57421875,-19.53125,-61.5234375,n/a,
1678447615.02975,-32.2265625,-52.734375,-27.83203125,-47.36328125,n/a,
1678447615.0336564,-20.99609375,-49.31640625,-32.2265625,-28.3203125,n/a,
1678447615.0375626,-22.94921875,-27.83203125,-41.9921875,-24.4140625,n/a,
1678447615.0414689,-31.73828125,-23.92578125,-41.015625,-27.34375,n/a,
1678447615.045375,-47.36328125,-25.87890625,-23.4375,-59.08203125,n/a,
1678447615.0492814,-31.25,-20.01953125,-21.97265625,-33.69140625,n/a,
1678447615.0531876,-18.06640625,-18.5546875,-21.97265625,-4.39453125,n/a,
1678447615.0570939,-23.4375,-25.87890625,-27.34375,-18.06640625,n/a,
1678447615.059125,-17.578125,-27.34375,-27.83203125,-13.18359375,n/a,
1678447615.0630312,-39.0625,-28.80859375,-20.01953125,-47.36328125,n/a,
1678447615.0669374,-44.43359375,-23.92578125,-29.78515625,-55.6640625,n/a,
1678447615.0708437,-20.99609375,-20.5078125,-30.76171875,-25.390625,n/a,
1678447615.07475,-8.30078125,-26.85546875,-25.87890625,-11.23046875,n/a,
1678447615.0786562,-15.13671875,-38.57421875,-33.69140625,-6.8359375,n/a,
1678447615.0825624,-33.203125,-51.7578125,-33.69140625,-38.57421875,n/a,
1678447615.0864687,-27.83203125,-34.66796875,-31.25,-42.96875,n/a,
1678447615.090375,-8.30078125,-12.6953125,-33.203125,-13.671875,n/a,
1678447615.0942812,-0.48828125,-28.3203125,-32.71484375,8.30078125,n/a,
1678447615.0981874,-11.71875,-39.55078125,-36.1328125,0.0,n/a,
1678447615.1020937,-35.64453125,-41.015625,-25.87890625,-41.015625,n/a,
1678447615.104125,-32.2265625,-36.1328125,-16.6015625,-39.55078125,n/a,
1678447615.1080313,-18.06640625,-26.3671875,-25.87890625,-18.06640625,n/a,
1678447615.1119375,-16.11328125,-26.3671875,-32.71484375,-14.6484375,n/a,
1678447615.1158438,-19.53125,-23.92578125,-25.390625,-2.9296875,n/a,
1678447615.11975,-31.25,-27.34375,-20.5078125,-25.87890625,n/a,
1678447615.1236563,-33.69140625,-36.1328125,-20.5078125,-50.29296875,n/a,
1678447615.1275625,-23.4375,-50.78125,-22.4609375,-30.76171875,n/a,
1678447615.1314688,-16.11328125,-41.9921875,-19.04296875,-11.71875,n/a,
1678447615.135375,-6.8359375,-25.390625,-16.6015625,11.71875,n/a,
1678447615.1392813,-27.34375,-26.85546875,-26.85546875,-18.06640625,n/a,
1678447615.1431875,-36.1328125,-32.2265625,-29.296875,-49.8046875,n/a,
1678447615.1470938,-18.5546875,-31.25,-21.97265625,-22.94921875,n/a,
1678447615.149125,-8.7890625,-18.06640625,-26.3671875,-3.41796875,n/a,
1678447615.1530313,-17.08984375,-27.34375,-36.62109375,2.44140625,n/a,
1678447615.1569376,-33.203125,-37.109375,-30.76171875,-20.99609375,n/a,
1678447615.1608438,-35.64453125,-18.5546875,-25.390625,-41.015625,n/a,
1678447615.16475,-23.92578125,-18.06640625,-18.06640625,-25.87890625,n/a,
1678447615.1686563,-15.625,-38.57421875,-21.97265625,-16.6015625,n/a,
1678447615.1725626,-7.8125,-35.15625,-29.78515625,-3.90625,n/a,
1678447615.1764688,-18.06640625,-31.73828125,-22.4609375,-16.6015625,n/a,
1678447615.180375,-24.4140625,-34.1796875,-20.01953125,-36.62109375,n/a,
1678447615.1842813,-14.16015625,-27.83203125,-25.87890625,-28.80859375,n/a,
1678447615.1881876,-9.765625,-29.296875,-27.83203125,-19.53125,n/a,
1678447615.1920938,-6.8359375,-28.3203125,-29.296875,-6.34765625,n/a,
1678447615.195125,-21.97265625,-24.4140625,-33.69140625,-13.18359375,n/a,
1678447615.1990314,-42.96875,-28.3203125,-40.52734375,-47.8515625,n/a,
1678447615.2029376,-34.66796875,-32.2265625,-39.0625,-43.9453125,red,1678447615.2010546
1678447615.2068439,-16.6015625,-30.76171875,-33.203125,-14.16015625,n/a,
1678447615.21075,-15.625,-41.9921875,-31.25,4.39453125,n/a,
1678447615.2146564,-32.2265625,-56.15234375,-28.80859375,-15.625,n/a,
1678447615.2185626,-42.48046875,-33.203125,-17.578125,-47.36328125,n/a,
1678447615.2224689,-27.83203125,-29.78515625,-13.671875,-27.34375,n/a,
1678447615.226375,-19.53125,-40.0390625,-21.97265625,-9.765625,n/a,
1678447615.2302814,-22.94921875,-27.34375,-23.92578125,-10.7421875,n/a,
1678447615.2341876,-23.92578125,-20.01953125,-24.90234375,-3.90625,n/a,
1678447615.2380939,-33.69140625,-19.04296875,-28.80859375,-24.4140625,n/a,
1678447615.239125,-36.62109375,-24.90234375,-31.25,-38.0859375,n/a,
1678447615.2430313,-20.01953125,-32.71484375,-31.25,-17.578125,n/a,
1678447615.2469375,-12.20703125,-32.2265625,-22.4609375,-1.953125,n/a,
1678447615.2508438,-17.578125,-39.55078125,-17.08984375,-2.9296875,n/a,
1678447615.25475,-31.73828125,-35.64453125,-20.01953125,-40.0390625,n/a,
1678447615.2586563,-31.73828125,-21.97265625,-22.94921875,-43.45703125,n/a,
1678447615.2625625,-6.34765625,-34.66796875,-30.2734375,-4.8828125,n/a,
1678447615.2664688,3.90625,-27.34375,-25.87890625,14.16015625,n/a,
1678447615.270375,-11.23046875,-22.4609375,-22.94921875,1.46484375,n/a,
1678447615.2742813,-32.71484375,-31.25,-27.34375,-36.1328125,n/a,
1678447615.2781875,-22.94921875,-22.4609375,-20.5078125,-37.59765625,n/a,
1678447615.2820938,-7.32421875,-19.04296875,-14.6484375,-8.30078125,n/a,
1678447615.284125,-12.6953125,-20.5078125,-23.4375,-5.37109375,n/a,
1678447615.2880313,-7.8125,-28.80859375,-30.2734375,1.46484375,n/a,
1678447615.2919376,-13.671875,-28.80859375,-22.4609375,-17.578125,n/a,
1678447615.2958438,-23.92578125,-21.97265625,-27.83203125,-40.52734375,n/a,
1678447615.29975,-4.8828125,-30.2734375,-33.203125,-11.71875,n/a,
1678447615.3036563,10.7421875,-33.69140625,-17.08984375,8.7890625,n/a,
1678447615.3075626,5.859375,-27.83203125,-20.99609375,20.01953125,n/a,
1678447615.3114688,-18.5546875,-20.01953125,-36.1328125,-13.18359375,n/a,
1678447615.315375,-25.87890625,-25.87890625,-43.45703125,-48.33984375,n/a,
1678447615.3192813,-9.765625,-30.76171875,-39.0625,-24.90234375,n/a,
1678447615.3231876,-5.37109375,-21.97265625,-27.34375,-2.9296875,n/a,
1678447615.3270938,-11.71875,-29.296875,-30.76171875,-0.48828125,n/a,
1678447615.329125,-27.83203125,-32.2265625,-25.87890625,-18.5546875,n/a,
1678447615.3330312,-39.55078125,-31.25,-14.6484375,-41.015625,n/a,
1678447615.3369374,-27.83203125,-34.66796875,-14.6484375,-29.78515625,n/a,
1678447615.3408437,-20.99609375,-26.85546875,-17.08984375,-20.99609375,n/a,
1678447615.34475,-17.578125,-24.4140625,-25.87890625,-12.6953125,n/a,
1678447615.3486562,-16.11328125,-32.71484375,-26.3671875,-17.08984375,n/a,
1678447615.3525624,-17.578125,-29.78515625,-23.4375,-34.1796875,n/a,
1678447615.3564687,-17.08984375,-25.390625,-36.62109375,-22.94921875,n/a,
1678447615.360375,-10.25390625,-36.62109375,-31.25,-9.27734375,n/a,
1678447615.3642812,2.9296875,-43.45703125,-17.578125,9.27734375,n/a,
1678447615.3681874,-3.90625,-30.2734375,-20.5078125,8.7890625,n/a,
1678447615.3720937,-35.15625,-24.4140625,-29.296875,-44.921875,n/a,
1678447615.375125,-22.94921875,-16.6015625,-35.64453125,-36.62109375,n/a,
1678447615.3790312,-0.9765625,-18.5546875,-32.2265625,-5.859375,n/a,
1678447615.3829374,-3.41796875,-23.92578125,-32.71484375,-10.7421875,n/a,
1678447615.3868437,-15.625,-30.76171875,-36.1328125,-22.4609375,n/a,
1678447615.39075,-34.66796875,-39.0625,-25.87890625,-50.78125,n/a,
1678447615.3946562,-16.11328125,-32.2265625,-26.3671875,-31.25,n/a,
1678447615.3985624,-7.8125,-29.296875,-37.59765625,-14.6484375,n/a,
1678447615.4024687,-20.99609375,-34.1796875,-39.55078125,-24.4140625,n/a,
1678447615.406375,-19.53125,-41.9921875,-32.2265625,-22.94921875,n/a,
1678447615.4102812,-32.2265625,-36.1328125,-23.92578125,-47.36328125,n/a,
1678447615.4141874,-30.2734375,-30.76171875,-28.80859375,-45.41015625,n/a,
1678447615.4180937,-18.5546875,-33.69140625,-36.62109375,-25.390625,n/a,
1678447615.434125,-20.5078125,-42.48046875,-38.0859375,-18.5546875,n/a,
1678447615.4380312,-19.53125,-37.109375,-41.50390625,-6.34765625,n/a,
1678447615.4419374,-36.62109375,-24.4140625,-33.203125,-36.1328125,n/a,
1678447615.4458437,-37.59765625,-20.5078125,-22.94921875,-47.36328125,n/a,
1678447615.44975,-12.20703125,-19.04296875,-29.78515625,-8.7890625,n/a,
1678447615.4536562,-4.8828125,-20.5078125,-27.34375,3.41796875,n/a,
1678447615.4575624,-9.765625,-32.2265625,-21.484375,-5.37109375,n/a,
1678447615.4614687,-26.85546875,-36.62109375,-31.25,-37.59765625,n/a,
1678447615.465375,-21.97265625,-23.92578125,-34.66796875,-43.45703125,n/a,
1678447615.4692812,4.39453125,-22.4609375,-29.78515625,-5.859375,n/a,
1678447615.4731874,3.41796875,-34.1796875,-31.73828125,-0.48828125,n/a,
1678447615.4770937,-0.48828125,-38.57421875,-38.57421875,2.9296875,n/a,
1678447615.480125,-14.16015625,-33.69140625,-33.203125,-23.92578125,n/a,
1678447615.4840312,-23.4375,-20.5078125,-30.76171875,-49.8046875,n/a,
1678447615.4879375,-18.06640625,-19.53125,-36.62109375,-29.296875,n/a,
1678447615.4918437,-19.04296875,-39.0625,-35.15625,-17.578125,n/a,
1678447615.49575,-18.5546875,-38.0859375,-37.109375,-4.39453125,n/a,
1678447615.4996562,-38.57421875,-23.92578125,-42.48046875,-24.90234375,n/a,
1678447615.5035625,-48.828125,-18.5546875,-35.64453125,-46.38671875,n/a,
1678447615.5074687,-26.3671875,-21.97265625,-29.78515625,-20.01953125,n/a,
1678447615.511375,-4.8828125,-29.296875,-28.3203125,10.25390625,n/a,
1678447615.5152812,-3.90625,-32.2265625,-36.62109375,16.6015625,n/a,
1678447615.5191875,-24.4140625,-23.92578125,-47.36328125,-26.85546875,n/a,
1678447615.5230937,-34.66796875,-36.62109375,-41.015625,-48.828125,n/a,
1678447615.525125,-13.671875,-53.22265625,-34.66796875,-12.20703125,n/a,
1678447615.5290313,-7.8125,-44.43359375,-32.71484375,-15.13671875,n/a,
1678447615.5329375,-8.30078125,-31.73828125,-27.34375,-8.30078125,n/a,
1678447615.5368438,-19.04296875,-19.04296875,-23.4375,-17.08984375,n/a,
1678447615.54075,-40.52734375,-28.80859375,-27.83203125,-54.19921875,n/a,
1678447615.5446563,-28.3203125,-37.59765625,-31.25,-34.1796875,n/a,
1678447615.5485625,-21.97265625,-26.85546875,-35.15625,-21.97265625,n/a,
1678447615.5524688,-23.4375,-30.76171875,-40.52734375,-14.6484375,n/a,
1678447615.556375,-24.4140625,-34.1796875,-40.52734375,-7.32421875,n/a,
1678447615.5602813,-51.7578125,-26.3671875,-36.1328125,-52.734375,n/a,
1678447615.5641875,-49.31640625,-27.83203125,-27.34375,-57.12890625,n/a,
1678447615.5680938,-21.97265625,-39.55078125,-18.5546875,-9.765625,n/a,
1678447615.570125,-15.13671875,-40.52734375,-23.92578125,15.13671875,n/a,
1678447615.5740314,-32.2265625,-37.109375,-32.71484375,-0.48828125,n/a,
1678447615.5779376,-48.33984375,-27.34375,-28.3203125,-35.15625,n/a,
1678447615.5818439,-34.1796875,-21.97265625,-21.484375,-27.83203125,n/a,
1678447615.58575,-25.390625,-34.66796875,-23.92578125,-8.7890625,n/a,
1678447615.5896564,-24.4140625,-34.66796875,-22.94921875,1.953125,n/a,
1678447615.5935626,-20.99609375,-29.296875,-25.87890625,6.8359375,n/a,
1678447615.5974689,-41.015625,-30.2734375,-24.90234375,-21.484375,n/a,
1678447615.601375,-51.7578125,-47.36328125,-20.01953125,-27.34375,n/a,
1678447615.6052814,-36.62109375,-56.15234375,-27.83203125,-12.6953125,n/a,
1678447615.6091876,-29.78515625,-42.48046875,-33.203125,-3.90625,n/a,
1678447615.6130939,-32.2265625,-36.1328125,-30.76171875,-3.90625,n/a,
1678447615.615125,-44.43359375,-29.296875,-26.85546875,-38.0859375,n/a,
1678447615.6190312,-42.96875,-28.3203125,-24.90234375,-42.48046875,n/a,
1678447615.6229374,-22.4609375,-29.296875,-21.484375,-10.25390625,n/a,
1678447615.6268437,-18.5546875,-33.203125,-15.625,3.90625,n/a,
1678447615.63075,-28.3203125,-38.0859375,-19.04296875,-0.48828125,n/a,
1678447615.6346562,-48.828125,-31.25,-27.83203125,-32.71484375,n/a,
1678447615.6385624,-45.41015625,-26.85546875,-27.34375,-41.015625,n/a,
1678447615.6424687,-25.390625,-36.62109375,-30.2734375,-5.859375,n/a,
1678447615.646375,-25.390625,-44.43359375,-39.55078125,-9.27734375,n/a,
1678447615.6502812,-26.3671875,-38.57421875,-40.52734375,-18.5546875,n/a,
1678447615.6541874,-38.57421875,-34.1796875,-33.203125,-38.0859375,n/a,
1678447615.6580937,-41.9921875,-20.5078125,-30.76171875,-46.875,n/a,
1678447615.659125,-31.25,-16.6015625,-36.1328125,-32.2265625,n/a,
1678447615.6630313,-25.87890625,-34.66796875,-38.57421875,-22.4609375,n/a,
1678447615.6669376,-21.484375,-37.59765625,-39.55078125,-5.37109375,n/a,
1678447615.6708438,-38.0859375,-23.4375,-39.55078125,-27.34375,n/a,
1678447615.67475,-50.78125,-14.6484375,-36.1328125,-52.24609375,n/a,
1678447615.6786563,-35.64453125,-22.94921875,-31.25,-36.1328125,n/a,
1678447615.6825626,-20.99609375,-21.97265625,-30.2734375,-11.23046875,n/a,
1678447615.6864688,-16.11328125,-14.16015625,-33.203125,8.30078125,n/a,
1678447615.690375,-36.1328125,-22.4609375,-35.15625,-29.296875,n/a,
1678447615.6942813,-48.33984375,-33.203125,-38.0859375,-51.26953125,n/a,
1678447615.6981876,-31.25,-30.76171875,-45.41015625,-25.87890625,n/a,
1678447615.7020938,-27.34375,-27.34375,-36.1328125,-24.90234375,n/a,
1678447615.719125,-31.73828125,-20.99609375,-34.1796875,-16.6015625,n/a,
1678447615.7230313,-41.50390625,-17.08984375,-32.2265625,-22.94921875,n/a,
1678447615.7269375,-54.6875,-27.34375,-21.97265625,-48.828125,n/a,
1678447615.7308438,-45.8984375,-40.0390625,-29.78515625,-39.0625,n/a,
1678447615.73475,-43.45703125,-34.1796875,-33.203125,-27.34375,n/a,
1678447615.7386563,-38.0859375,-24.4140625,-24.4140625,-10.7421875,n/a,
1678447615.7425625,-39.0625,-26.85546875,-20.01953125,-9.765625,n/a,
1678447615.7464688,-51.26953125,-36.1328125,-21.484375,-49.31640625,n/a,
1678447615.750375,-42.96875,-37.59765625,-34.1796875,-48.828125,n/a,
1678447615.7542813,-25.87890625,-27.83203125,-36.62109375,-14.6484375,n/a,
1678447615.7581875,-16.6015625,-24.90234375,-29.78515625,7.32421875,n/a,
1678447615.7620938,-29.296875,-24.4140625,-35.64453125,-6.34765625,n/a,
1678447615.764125,-47.36328125,-15.13671875,-35.15625,-41.50390625,n/a,
1678447615.7680314,-35.64453125,-15.625,-36.1328125,-33.203125,n/a,
1678447615.7719376,-20.01953125,-27.34375,-44.43359375,-15.13671875,n/a,
1678447615.7758439,-13.671875,-22.94921875,-45.41015625,-6.34765625,n/a,
1678447615.77975,-18.5546875,-33.203125,-31.25,-7.32421875,n/a,
1678447615.7836564,-33.203125,-34.1796875,-18.06640625,-34.66796875,n/a,
1678447615.7875626,-32.2265625,-26.3671875,-32.2265625,-34.1796875,n/a,
1678447615.7914689,-21.97265625,-26.3671875,-43.9453125,-21.97265625,n/a,
1678447615.795375,-19.53125,-15.625,-32.71484375,-16.11328125,n/a,
1678447615.7992814,-19.53125,-12.6953125,-21.97265625,0.0,n/a,
1678447615.8031876,-44.43359375,-26.85546875,-24.4140625,-40.52734375,n/a,
1678447615.8070939,-57.6171875,-32.2265625,-34.1796875,-63.96484375,n/a,
1678447615.809125,-41.50390625,-26.3671875,-32.71484375,-21.97265625,n/a,
1678447615.8130312,-30.76171875,-23.92578125,-33.203125,-1.953125,n/a,
1678447615.8169374,-30.76171875,-34.1796875,-49.31640625,-9.765625,n/a,
1678447615.8208437,-45.8984375,-46.875,-34.66796875,-45.41015625,n/a,
1678447615.82475,-47.36328125,-41.9921875,-25.87890625,-53.7109375,n/a,
