timestamps,TP9,AF7,AF8,TP10,Right AUX
1675199173.138,-43.945,-32.227,-30.273,-32.715,-103.516
1675199173.142,-28.809,-32.715,-33.691,-23.438,-208.008
1675199173.146,-3.906,-29.785,-26.855,-6.348,-121.094
1675199173.150,0.000,-30.762,-25.391,-4.395,-47.363
1675199173.154,-20.508,-36.133,-24.902,-24.414,-129.395
1675199173.158,-29.297,-39.062,-22.461,-34.180,-91.797
1675199173.162,-20.020,-31.738,-27.344,-22.949,0.000
1675199173.165,-4.883,-23.926,-28.320,-6.348,290.039
1675199173.169,-13.672,-27.344,-36.133,-13.672,153.809
1675199173.173,-29.297,-25.879,-39.551,-27.832,-189.941
1675199173.177,-37.109,-24.414,-34.668,-32.715,-195.801
1675199173.181,-32.227,-26.367,-36.621,-30.762,-111.816
1675199173.184,-14.160,-25.391,-32.715,-14.648,-68.848
1675199173.188,-18.066,-36.621,-32.227,-15.137,-142.578
1675199173.192,-35.156,-42.480,-31.738,-26.367,-14.648
1675199173.196,-38.574,-33.203,-27.344,-30.762,118.164
1675199173.200,-37.598,-32.715,-35.156,-39.551,-118.164
1675199173.204,-19.043,-35.156,-41.504,-30.762,-110.840
1675199173.208,-11.230,-40.039,-36.621,-11.230,145.508
1675199173.211,-35.645,-33.203,-35.156,-15.625,366.211
1675199173.215,-51.758,-28.809,-39.551,-36.621,-4.395
1675199173.219,-44.434,-37.109,-31.250,-35.156,-287.109
1675199173.223,-23.926,-32.227,-23.438,-20.996,-162.109
1675199173.227,-20.996,-27.344,-31.250,-14.160,-83.984
1675199173.230,-35.156,-39.062,-31.738,-22.461,-154.297
1675199173.234,-43.457,-39.551,-28.320,-29.297,-232.422
1675199173.238,-41.992,-35.156,-32.715,-23.438,-140.137
1675199173.242,-25.391,-47.363,-37.598,-11.719,-35.645
1675199173.246,-17.090,-49.805,-38.574,-7.812,-70.312
1675199173.250,-26.855,-38.574,-30.273,-14.160,-26.367
1675199173.254,-32.227,-36.133,-22.461,-16.113,243.164
1675199173.257,-34.668,-40.039,-30.273,-16.602,190.918
1675199173.261,-13.672,-30.762,-37.598,-16.113,-132.324
1675199173.265,4.395,-24.902,-31.738,-1.953,-105.957
1675199173.269,-5.859,-23.438,-27.344,-5.371,-49.316
1675199173.273,-22.461,-25.391,-28.809,-21.973,-142.578
1675199173.272,-34.668,-42.480,-28.809,-27.344,-242.676
1675199173.276,-24.414,-45.410,-32.715,-19.043,-170.898
1675199173.280,-6.348,-31.738,-33.691,-9.277,10.254
1675199173.284,-15.137,-30.273,-31.250,-13.672,98.633
1675199173.288,-34.180,-36.621,-33.691,-28.809,-105.957
1675199173.292,-31.250,-28.809,-30.762,-22.949,-46.875
1675199173.296,-10.254,-28.320,-23.926,-4.395,316.895
1675199173.299,0.000,-32.227,-26.367,0.977,172.852
1675199173.303,-8.301,-30.273,-34.180,-5.371,-86.426
1675199173.307,-19.531,-26.855,-32.715,-16.602,25.391
1675199173.311,-20.996,-25.391,-30.762,-17.578,51.758
1675199173.315,-16.602,-29.297,-26.855,-16.602,-179.688
1675199173.319,-7.812,-35.156,-26.855,-6.348,-125.000
1675199173.323,-0.977,-25.391,-30.762,-0.977,32.227
1675199173.327,-21.973,-22.461,-25.391,-18.555,-42.480
1675199173.331,-39.551,-28.809,-25.391,-26.855,-180.664
1675199173.335,-28.320,-32.227,-30.273,-25.879,-161.621
1675199173.339,-13.672,-31.738,-31.250,-17.090,59.082
1675199173.343,-17.578,-24.414,-34.180,-18.066,43.457
1675199173.346,-38.086,-20.996,-36.621,-37.109,-130.859
1675199173.350,-42.969,-24.414,-31.738,-41.992,-153.320
1675199173.354,-27.832,-23.926,-24.414,-27.344,279.297
1675199173.358,-15.625,-28.809,-25.879,-17.578,208.984
1675199173.362,-20.508,-32.227,-27.344,-20.508,-112.305
1675199173.378,-34.668,-23.438,-25.391,-32.227,-66.406
1675199173.382,-48.340,-18.066,-24.902,-42.969,-139.160
1675199173.386,-47.363,-20.508,-28.320,-37.598,-196.289
1675199173.390,-26.367,-28.809,-30.762,-22.949,-167.480
1675199173.394,-10.742,-35.156,-29.785,-7.812,-0.488
1675199173.398,-15.137,-33.691,-26.367,-5.371,170.898
1675199173.402,-35.156,-28.320,-23.926,-18.066,-83.496
1675199173.405,-38.574,-33.691,-26.367,-27.344,-251.953
1675199173.409,-12.207,-41.016,-21.484,-7.812,-42.969
1675199173.413,-5.859,-24.902,-26.855,0.488,121.094
1675199173.417,-26.367,-11.230,-34.180,-16.602,-83.984
1675199173.421,-41.504,-13.184,-31.250,-24.902,-185.059
1675199173.424,-45.410,-14.160,-34.668,-24.902,-154.297
1675199173.428,-30.273,-19.531,-32.715,-17.578,-101.074
1675199173.432,-20.996,-28.320,-32.227,-12.207,-85.449
1675199173.436,-35.645,-29.785,-30.273,-26.367,-43.945
1675199173.440,-33.203,-26.855,-33.203,-26.855,81.055
1675199173.444,-24.902,-31.250,-37.109,-22.949,20.020
1675199173.448,-32.715,-36.621,-31.250,-25.391,-11.230
1675199173.451,-22.461,-30.273,-22.949,-5.859,83.008
1675199173.455,-20.508,-29.785,-19.043,2.441,282.715
1675199173.459,-38.086,-36.133,-24.414,-13.672,61.523
1675199173.463,-49.805,-36.621,-27.344,-31.250,-239.746
1675199173.467,-20.996,-37.109,-21.484,-7.812,-175.781
1675199173.467,-5.371,-38.574,-19.043,6.348,-78.613
1675199173.471,-8.789,-37.598,-21.973,1.465,-54.199
1675199173.475,-16.113,-38.574,-22.949,-0.977,-116.211
1675199173.479,-31.738,-36.133,-19.531,-11.230,-49.316
1675199173.483,-9.766,-31.250,-20.508,5.859,41.504
1675199173.487,18.066,-32.715,-20.020,18.555,-40.527
1675199173.491,3.418,-40.527,-23.438,-4.395,-105.957
1675199173.494,-16.602,-48.340,-20.996,-12.207,-48.828
1675199173.498,-19.531,-43.945,-20.020,-5.859,219.238
1675199173.502,-17.090,-41.992,-29.785,-20.020,-52.734
1675199173.506,-4.883,-51.270,-29.785,-9.766,-226.074
1675199173.510,-3.418,-53.223,-25.879,10.254,-43.945
1675199173.513,-19.043,-35.156,-27.832,-5.859,-87.402
1675199173.517,-37.598,-27.344,-33.203,-23.438,-150.879
1675199173.521,-31.250,-34.668,-33.203,-16.113,-132.324
1675199173.525,-10.254,-42.480,-34.180,-10.254,-43.457
1675199173.529,-12.207,-39.062,-29.785,-8.789,-44.434
1675199173.533,-25.879,-36.133,-23.926,-12.695,37.109
1675199173.537,-36.621,-40.039,-20.020,-19.531,31.738
1675199173.540,-25.391,-35.645,-17.090,-3.906,227.051
1675199173.544,-18.066,-48.340,-29.785,5.859,307.617
1675199173.548,-24.414,-58.105,-34.668,-12.695,-35.156
1675199173.552,-35.156,-47.852,-24.902,-25.391,-90.820
1675199173.556,-52.246,-44.922,-21.973,-39.551,-72.266
1675199173.556,-53.711,-38.086,-26.855,-44.922,-117.676
1675199173.560,-35.156,-29.297,-25.879,-32.715,-185.547
1675199173.564,-25.391,-32.227,-26.367,-24.902,-160.645
1675199173.568,-30.762,-32.715,-24.902,-21.484,44.434
1675199173.572,-35.156,-29.297,-19.531,-28.320,-68.848
1675199173.576,-36.133,-39.062,-22.461,-35.156,-217.773
1675199173.580,-22.949,-40.039,-24.414,-20.996,1.465
1675199173.583,-4.395,-20.508,-22.949,-1.465,372.070
1675199173.587,-14.648,-18.555,-34.180,-20.508,109.375
1675199173.591,-29.297,-39.551,-42.480,-47.852,-235.352
1675199173.595,-30.273,-47.363,-29.785,-42.480,-110.840
1675199173.599,-15.625,-27.832,-26.367,-26.367,-40.527
1675199173.605,-16.113,-24.414,-41.016,-22.949,-115.234
1675199173.609,-24.902,-34.180,-38.086,-27.344,-66.895
1675199173.613,-29.785,-26.367,-24.902,-29.785,28.809
1675199173.617,-40.039,-22.949,-24.414,-35.156,-82.031
1675199173.621,-31.250,-34.180,-29.785,-33.691,-170.898
1675199173.625,-15.625,-41.016,-35.645,-19.043,-34.668
1675199173.629,-24.414,-33.691,-33.691,-10.742,309.570
1675199173.632,-40.039,-20.996,-29.297,-24.902,173.828
1675199173.636,-39.551,-20.020,-30.273,-33.203,-182.129
1675199173.640,-27.344,-26.367,-31.738,-34.180,-172.852
1675199173.644,-17.578,-30.762,-33.691,-29.297,-117.188
1675199173.648,-19.531,-33.691,-34.180,-26.367,-127.441
1675199173.647,-34.668,-27.832,-27.832,-38.574,-152.832
1675199173.651,-38.086,-24.414,-30.762,-41.992,-113.281
1675199173.655,-16.602,-32.715,-38.086,-31.250,4.883
1675199173.659,-5.859,-38.574,-39.551,-11.230,64.453
1675199173.663,-15.625,-38.574,-39.062,-13.672,-43.945
1675199173.667,-26.855,-36.133,-32.227,-22.461,-97.168
1675199173.671,-35.645,-18.555,-27.832,-9.277,356.934
1675199173.674,-36.133,-18.066,-35.645,-14.160,316.895
1675199173.678,-25.391,-33.691,-35.645,-17.578,-116.699
1675199173.682,-12.695,-38.574,-27.832,-9.277,-48.340
1675199173.686,-29.297,-35.156,-28.320,-20.020,-29.297
1675199173.690,-44.434,-28.809,-29.297,-25.391,-195.312
1675199173.695,-11.230,-26.367,-30.273,-6.836,-239.258
1675199173.699,17.090,-36.621,-34.668,5.371,-98.145
1675199173.703,-2.930,-45.410,-33.203,-7.812,-5.859
1675199173.707,-34.668,-38.086,-23.438,-29.785,-48.828
1675199173.711,-32.715,-28.320,-25.391,-19.043,-75.684
1675199173.715,-13.184,-30.762,-23.926,-0.488,86.914
1675199173.719,-17.090,-38.574,-19.531,-10.742,166.504
1675199173.722,-1.465,-39.062,-24.902,2.441,89.355
1675199173.726,-7.324,-35.645,-22.949,-7.812,58.594
1675199173.730,-17.578,-23.926,-21.484,-20.508,309.082
1675199173.734,-4.395,-22.949,-21.973,-12.695,243.652
1675199173.738,4.395,-27.832,-27.832,-11.719,-68.848
1675199173.753,8.301,-26.367,-28.320,-5.371,-51.270
1675199173.757,-6.836,-23.926,-19.531,-13.184,-14.160
1675199173.761,-19.043,-26.855,-16.113,-28.320,-90.332
1675199173.765,-21.973,-35.645,-14.648,-27.344,-168.457
1675199173.769,-18.066,-39.551,-19.043,-14.648,-58.105
1675199173.773,-1.953,-39.551,-20.508,6.348,356.445
1675199173.777,-10.254,-40.039,-19.531,-3.418,251.953
1675199173.780,-31.250,-31.250,-23.926,-23.438,-152.832
1675199173.784,-29.785,-22.461,-17.090,-14.160,-74.707
1675199173.788,-11.719,-24.414,-21.973,7.812,252.441
1675199173.792,-1.465,-30.273,-34.180,3.906,-2.441
1675199173.796,-10.742,-34.668,-24.414,-8.301,-104.004
1675199173.798,-28.809,-33.203,-23.438,-14.648,6.836
1675199173.802,-34.180,-38.574,-30.273,-24.902,-167.969
1675199173.806,-19.043,-38.574,-26.855,-19.043,-225.098
1675199173.810,-9.766,-33.203,-27.832,-9.766,-79.102
1675199173.814,-8.301,-37.109,-36.133,-12.695,23.926
1675199173.818,-17.578,-44.434,-33.203,-24.414,-3.906
1675199173.822,-26.855,-42.480,-32.227,-38.086,-38.574
1675199173.825,-16.113,-31.250,-39.062,-26.367,-94.727
1675199173.829,0.977,-21.484,-38.574,-6.348,192.383
1675199173.833,-6.348,-22.949,-36.621,-16.602,275.391
1675199173.837,-28.809,-29.785,-26.367,-25.391,-87.891
1675199173.841,-41.504,-40.527,-23.926,-20.996,-188.965
1675199173.848,-38.086,-48.828,-35.156,-28.320,-109.375
1675199173.852,-22.461,-41.016,-35.645,-20.020,-115.723
1675199173.856,-14.648,-43.457,-32.715,-2.930,-109.863
1675199173.860,-26.367,-45.898,-27.344,-5.371,50.781
1675199173.864,-28.809,-29.297,-25.391,-3.906,234.863
1675199173.868,-25.879,-24.902,-29.297,-8.301,95.703
1675199173.872,-17.578,-27.344,-26.855,-13.184,8.301
1675199173.875,-12.695,-31.738,-20.020,-4.883,112.305
1675199173.879,-27.344,-28.320,-21.973,-9.277,252.930
1675199173.883,-44.434,-19.043,-31.250,-27.832,-37.109
1675199173.887,-42.969,-23.438,-30.273,-31.250,-255.371
1675199173.891,-25.879,-29.785,-25.391,-23.438,-117.188
1675199173.891,-12.207,-22.949,-32.227,-19.531,-133.789
1675199173.895,-21.484,-31.250,-30.762,-28.809,-224.121
1675199173.899,-33.203,-51.270,-20.508,-39.062,-187.988
1675199173.903,-26.367,-41.016,-25.879,-39.062,-116.699
1675199173.907,-13.672,-31.738,-39.551,-31.738,-148.926
1675199173.911,-8.301,-34.180,-39.551,-20.020,-95.215
1675199173.915,-15.625,-27.344,-32.715,-18.555,-38.574
1675199173.918,-28.809,-25.391,-38.086,-31.250,174.316
1675199173.922,-41.016,-29.785,-44.922,-40.039,139.160
1675199173.926,-27.832,-29.785,-39.551,-28.320,-170.410
1675199173.930,-12.207,-29.785,-30.273,-19.531,-121.094
1675199173.934,-26.855,-43.945,-29.785,-24.902,-53.223
1675199173.931,-38.086,-47.363,-27.344,-28.809,-128.906
1675199173.935,-35.156,-31.738,-25.879,-27.832,-247.559
1675199173.939,-17.090,-27.344,-24.902,-18.066,-145.508
1675199173.943,-1.465,-28.809,-24.902,-13.184,73.242
1675199173.947,-12.207,-25.879,-35.645,-18.555,-22.949
1675199173.951,-33.691,-33.203,-37.598,-34.180,-84.473
1675199173.955,-22.949,-36.621,-26.367,-26.855,-3.418
1675199173.958,3.906,-33.203,-24.902,6.836,391.602
1675199173.962,-11.230,-22.949,-35.156,-12.207,307.129
1675199173.966,-20.996,-14.160,-34.668,-31.738,-91.797
1675199173.970,-20.996,-14.160,-31.738,-33.203,-73.242
1675199173.974,-35.645,-19.531,-37.598,-45.410,-120.605
1675199173.978,-17.578,-26.855,-38.574,-22.949,-187.500
1675199173.982,-0.977,-24.414,-32.715,-14.648,-142.578
1675199173.986,-6.836,-20.996,-26.855,-26.855,-26.367
1675199173.990,-23.438,-23.926,-26.367,-26.367,-92.285
1675199173.994,-33.203,-24.414,-26.367,-32.715,-214.355
1675199173.998,-25.879,-26.855,-30.762,-37.598,-68.848
1675199174.002,-11.719,-27.344,-31.738,-21.484,282.715
1675199174.005,-14.160,-26.855,-30.762,-16.113,221.191
1675199174.009,-34.668,-34.180,-31.738,-30.273,-141.602
1675199174.013,-51.270,-30.273,-25.391,-39.062,-174.316
1675199174.017,-40.527,-25.391,-18.555,-30.273,-4.883
1675199174.021,-26.367,-34.180,-24.414,-13.672,-104.980
1675199174.022,-24.902,-34.668,-28.320,-15.137,-154.785
1675199174.026,-30.762,-29.297,-33.691,-29.297,-91.309
1675199174.030,-32.227,-21.484,-33.691,-35.156,-65.430
1675199174.034,-25.879,-27.344,-24.414,-37.109,-30.273
1675199174.038,-7.812,-33.691,-25.391,-28.809,-107.910
1675199174.042,1.953,-29.785,-27.344,-8.789,11.230
1675199174.046,-15.625,-26.855,-21.484,-8.789,495.117
1675199174.049,-34.180,-23.438,-19.531,-29.785,259.277
1675199174.053,-37.598,-19.043,-20.020,-38.086,-185.059
1675199174.057,-15.137,-24.902,-28.809,-24.902,-150.879
1675199174.061,-1.465,-28.320,-36.621,-16.113,-99.121
1675199174.065,-15.137,-24.902,-36.621,-23.926,-149.902
1675199174.070,-32.715,-26.855,-35.156,-34.668,-186.035
1675199174.074,-28.320,-36.621,-31.250,-32.227,-52.246
1675199174.078,-13.184,-46.875,-30.762,-26.855,-60.547
1675199174.082,-8.789,-39.062,-33.203,-25.391,-171.875
1675199174.086,-20.508,-24.902,-37.109,-33.691,-98.633
1675199174.090,-38.086,-21.973,-39.062,-45.898,180.176
1675199174.094,-40.039,-31.250,-36.621,-53.223,43.457
1675199174.097,-28.809,-36.133,-34.180,-38.574,-209.473
1675199174.101,-20.996,-33.203,-30.273,-25.391,-58.594
1675199174.105,-20.996,-35.156,-21.484,-19.531,225.098
1675199174.109,-25.879,-39.551,-21.973,-18.555,29.785
1675199174.113,-28.320,-31.738,-26.367,-28.809,-253.906
1675199174.126,-22.949,-19.043,-26.367,-30.762,-153.809
1675199174.130,-8.301,-16.113,-31.738,-28.320,55.176
1675199174.134,-14.648,-16.113,-42.969,-38.574,-34.180
1675199174.138,-30.762,-22.949,-45.410,-48.340,-122.559
1675199174.142,-39.062,-20.020,-47.852,-54.199,-11.230
1675199174.146,-25.391,-5.371,-48.340,-38.086,312.988
1675199174.150,2.441,-4.395,-50.781,-24.414,141.113
1675199174.153,-4.395,-12.695,-55.176,-39.062,-97.656
1675199174.157,-23.926,-15.137,-54.199,-40.527,-12.695
1675199174.161,-31.250,-11.230,-50.781,-42.969,-54.688
1675199174.165,-18.555,-9.766,-42.969,-41.504,-203.125
1675199174.169,1.465,-12.207,-39.062,-18.555,-209.961
1675199174.172,5.859,-19.043,-36.133,-7.812,3.418
1675199174.176,-12.207,-20.996,-35.156,-25.879,77.148
1675199174.180,-36.133,-20.996,-41.992,-43.457,-178.223
1675199174.184,-32.227,-18.066,-46.387,-42.969,-232.910
1675199174.188,-5.371,-21.973,-41.992,-27.832,-106.934
1675199174.192,-0.488,-29.297,-33.691,-21.484,19.043
1675199174.196,-20.020,-15.625,-32.715,-31.250,-38.574
1675199174.199,-35.645,-5.859,-33.691,-41.504,-145.996
1675199174.203,-27.344,-7.812,-26.367,-27.344,225.098
1675199174.207,-15.137,-17.578,-30.273,-14.160,228.027
1675199174.211,-12.207,-20.996,-40.527,-15.625,-140.137
1675199174.215,-20.508,-24.414,-36.133,-20.996,-143.066
1675199174.217,-38.574,-27.344,-32.227,-30.762,-134.277
1675199174.221,-37.598,-19.043,-26.855,-26.367,-193.359
1675199174.225,-15.625,-15.625,-33.203,-17.090,-110.840
1675199174.229,-1.465,-21.973,-40.039,-5.371,122.070
1675199174.233,-11.719,-25.879,-30.762,-4.883,183.594
1675199174.237,-31.250,-22.461,-22.949,-24.902,-20.996
1675199174.241,-29.297,-17.578,-20.020,-27.832,-201.172
1675199174.244,-10.742,-19.043,-21.484,-9.277,-58.594
1675199174.248,2.441,-20.996,-26.855,4.883,234.375
1675199174.252,-9.277,-24.414,-30.762,-8.301,11.230
1675199174.256,-22.949,-25.879,-24.414,-17.578,-199.219
1675199174.260,-25.391,-30.273,-24.414,-18.555,-66.406
1675199174.265,-16.113,-37.109,-26.855,-19.043,-61.523
1675199174.269,-4.883,-28.320,-29.785,-12.695,-114.258
1675199174.273,-17.578,-21.484,-32.715,-13.672,-19.531
1675199174.277,-33.691,-20.996,-34.180,-23.926,60.059
1675199174.281,-39.062,-22.949,-33.203,-31.250,-56.152
1675199174.285,-27.344,-33.203,-29.785,-18.555,-96.680
1675199174.289,-6.348,-30.762,-20.508,1.465,-43.945
1675199174.292,-3.906,-27.832,-12.207,4.395,195.312
1675199174.296,-23.926,-26.367,-14.160,-18.066,138.184
1675199174.300,-36.621,-22.461,-15.625,-24.414,-129.883
1675199174.304,-26.855,-20.020,-10.742,-12.207,-151.367
1675199174.308,-15.137,-33.203,-17.578,-4.395,-91.309
1675199174.307,-15.625,-40.527,-21.484,-2.441,-71.777
1675199174.311,-33.203,-27.832,-19.043,-12.207,-142.578
1675199174.315,-45.410,-19.531,-20.020,-23.926,-140.625
1675199174.319,-28.809,-16.113,-22.461,-18.555,-100.586
1675199174.323,-7.812,-12.207,-20.996,-11.230,-59.570
1675199174.327,-8.301,-19.531,-29.785,-20.020,-10.742
1675199174.331,-23.438,-20.508,-41.016,-29.785,62.012
1675199174.334,-32.227,-13.672,-29.297,-24.902,339.355
1675199174.338,-31.738,-19.043,-27.344,-31.250,180.176
1675199174.342,-24.902,-28.809,-28.320,-36.133,-115.723
1675199174.346,-16.602,-37.598,-24.902,-24.902,-30.762
1675199174.350,-21.973,-41.504,-29.785,-26.855,-63.477
1675199174.355,-32.227,-29.297,-31.738,-34.668,-202.637
1675199174.359,-29.297,-22.461,-32.227,-34.668,-205.566
1675199174.363,-16.602,-24.902,-32.227,-20.996,-64.453
1675199174.367,-8.301,-23.438,-34.180,-14.160,-0.488
1675199174.371,-10.254,-28.320,-31.250,-18.555,-110.840
1675199174.375,-20.996,-28.320,-29.297,-27.832,-49.316
1675199174.379,-25.879,-20.508,-31.250,-30.762,215.332
1675199174.382,-16.113,-32.715,-30.762,-22.461,177.246
1675199174.386,-8.789,-42.480,-34.668,-16.113,-14.160
1675199174.390,-20.996,-30.273,-31.738,-21.484,-49.805
1675199174.394,-28.809,-29.785,-19.531,-25.391,69.336
1675199174.398,-28.320,-35.156,-21.484,-32.715,-79.102
1675199174.397,-16.113,-31.250,-27.344,-24.902,-189.941
1675199174.401,-8.789,-25.879,-23.438,-5.371,-92.285
1675199174.405,-25.391,-25.391,-20.508,-10.742,-5.371
1675199174.409,-32.715,-21.973,-24.902,-29.297,-47.852
1675199174.413,-35.156,-22.461,-29.297,-39.062,-171.387
1675199174.417,-24.902,-32.715,-28.809,-28.809,-49.316
1675199174.421,-0.977,-39.551,-27.344,-6.836,436.523
1675199174.424,-11.719,-42.480,-29.297,-17.090,332.520
1675199174.428,-34.668,-35.156,-28.809,-42.969,-117.188
1675199174.432,-41.016,-27.832,-22.461,-44.434,-65.430
1675199174.436,-28.809,-34.668,-23.438,-27.832,-39.551
1675199174.440,-9.277,-38.086,-27.832,-20.508,-150.879
1675199174.445,-5.371,-26.855,-24.414,-19.043,-178.223
1675199174.449,-23.438,-17.578,-25.391,-20.020,-120.605
1675199174.453,-41.992,-21.973,-28.809,-29.785,-137.695
1675199174.457,-29.785,-41.016,-28.809,-24.414,-150.391
1675199174.461,-8.789,-36.133,-29.297,-11.719,-68.359
1675199174.465,-12.695,-26.855,-27.344,-10.254,93.262
1675199174.469,-27.832,-32.227,-23.438,-20.996,39.551
1675199174.472,-33.691,-30.762,-25.879,-39.062,-135.254
1675199174.476,-30.762,-29.297,-27.344,-33.203,-157.715
1675199174.480,-16.602,-33.203,-25.391,-10.254,110.840
1675199174.484,-5.859,-33.203,-28.320,-11.230,63.965
1675199174.488,-18.555,-23.926,-25.879,-24.414,-152.344
1675199174.503,-39.551,-28.809,-25.391,-31.738,-131.348
1675199174.507,-39.551,-44.922,-28.320,-30.762,-116.699
1675199174.511,-20.996,-40.039,-26.367,-18.066,-150.879
1675199174.515,-13.672,-24.414,-27.344,-10.254,-125.488
1675199174.519,-28.320,-15.137,-28.809,-15.625,-23.438
1675199174.523,-36.133,-14.648,-35.156,-19.531,243.164
1675199174.527,-39.062,-24.902,-38.574,-27.344,85.938
1675199174.530,-20.508,-38.086,-35.645,-14.160,-161.621
1675199174.534,-7.812,-37.598,-31.738,2.441,-6.836
1675199174.538,-40.039,-27.832,-36.621,-27.832,150.391
1675199174.542,-68.848,-24.414,-43.457,-60.547,-106.445
1675199174.546,-60.059,-35.645,-41.016,-52.246,-239.746
1675199174.547,-40.039,-31.738,-47.852,-27.344,-128.906
1675199174.551,-33.691,-29.785,-49.805,-16.602,-86.914
1675199174.555,-33.691,-28.320,-41.504,-21.484,-142.090
1675199174.559,-41.504,-17.578,-39.062,-36.621,-162.109
1675199174.563,-42.480,-14.648,-36.133,-43.457,1.465
1675199174.567,-34.180,-21.484,-38.574,-38.574,35.156
1675199174.571,-29.297,-20.020,-40.039,-27.832,30.762
1675199174.574,-29.785,-19.043,-35.645,-27.344,40.527
1675199174.578,-34.668,-28.320,-31.738,-29.785,192.383
1675199174.582,-41.504,-29.785,-36.621,-32.227,21.484
1675199174.586,-32.227,-30.273,-41.504,-28.320,-248.047
1675199174.590,-13.184,-30.762,-40.039,-18.066,-112.305
1675199174.607,-20.020,-26.367,-34.180,-19.043,-16.113
1675199174.611,-37.109,-21.973,-32.227,-30.273,-15.625
1675199174.615,-42.969,-21.484,-33.691,-39.551,-121.582
1675199174.619,-24.414,-21.973,-31.738,-25.879,-62.012
1675199174.623,-2.930,-22.949,-27.832,-8.789,144.531
1675199174.627,-13.672,-35.156,-28.320,-15.137,83.008
1675199174.631,-39.062,-37.598,-29.785,-30.762,-37.109
1675199174.634,-46.387,-28.320,-32.227,-42.480,15.137
1675199174.638,-35.645,-26.855,-28.809,-24.414,325.195
1675199174.642,-23.438,-27.344,-39.551,-19.043,108.887
1675199174.646,-19.043,-31.250,-49.805,-24.902,-177.246
1675199174.650,-23.926,-29.297,-39.551,-24.414,-109.863
1675199174.638,-35.645,-30.762,-41.016,-36.621,-112.305
1675199174.642,-32.227,-28.320,-35.645,-34.668,-196.289
1675199174.646,-20.996,-31.250,-30.762,-26.367,-177.734
1675199174.650,-14.648,-35.645,-33.691,-24.902,-41.504
1675199174.654,-29.297,-23.926,-33.203,-33.691,-95.215
1675199174.658,-45.410,-20.020,-33.203,-42.969,-159.180
1675199174.662,-40.527,-22.461,-38.086,-38.574,-59.082
1675199174.665,-24.414,-24.902,-36.133,-26.855,33.203
1675199174.669,-12.695,-33.203,-35.156,-21.973,-74.707
1675199174.673,-25.879,-40.039,-31.738,-28.320,-165.527
1675199174.677,-41.016,-28.809,-24.902,-30.762,-141.602
1675199174.681,-25.879,-26.855,-22.461,-15.625,172.852
1675199174.682,-11.230,-38.574,-27.832,-4.883,155.762
1675199174.686,-20.020,-31.250,-35.156,-15.137,-84.961
1675199174.690,-33.691,-20.996,-21.973,-24.414,-87.402
1675199174.694,-40.039,-21.973,-13.672,-30.273,-142.090
1675199174.698,-40.039,-23.438,-23.926,-29.297,-225.098
1675199174.702,-26.855,-31.250,-30.762,-15.625,-136.719
1675199174.706,-12.207,-30.273,-24.902,-6.348,137.695
1675199174.709,-11.230,-12.695,-16.602,-4.395,434.570
1675199174.713,-25.391,-15.625,-21.973,-19.043,112.305
1675199174.717,-30.762,-32.227,-29.297,-29.297,-225.098
1675199174.721,-16.602,-35.645,-26.367,-11.719,-114.258
1675199174.725,-6.348,-30.762,-23.438,1.953,-79.102
1675199174.729,-13.184,-20.020,-26.367,-5.859,-152.344
1675199174.733,-34.180,-17.578,-29.297,-23.926,-129.395
1675199174.737,-41.504,-23.438,-28.320,-24.414,-27.344
1675199174.741,-15.625,-29.297,-25.391,-11.719,-141.602
1675199174.745,3.906,-25.879,-23.926,-1.465,-209.961
1675199174.749,-7.812,-16.113,-28.809,-10.742,-38.086
1675199174.753,-24.414,-18.555,-26.855,-18.066,281.250
1675199174.756,-35.156,-26.855,-20.996,-26.367,83.984
1675199174.760,-22.461,-23.926,-28.320,-28.320,-216.797
1675199174.764,-6.836,-24.414,-33.203,-13.672,-136.719
1675199174.768,-18.066,-23.926,-32.715,-11.719,-34.668
1675199174.772,-26.855,-26.855,-32.227,-20.996,-129.883
1675199174.772,-28.809,-29.785,-21.973,-26.855,-203.125
1675199174.776,-22.461,-34.180,-20.996,-20.020,-135.742
1675199174.780,-8.301,-44.922,-24.414,-6.836,-19.531
1675199174.784,-9.766,-35.645,-27.344,-1.953,47.852
1675199174.788,-23.438,-22.461,-26.367,-12.207,-104.004
1675199174.792,-33.203,-23.926,-24.414,-21.484,-107.910
1675199174.796,-18.066,-25.391,-25.879,-9.277,344.727
1675199174.799,-7.812,-23.926,-29.297,-11.719,248.535
1675199174.803,-14.160,-26.367,-37.598,-24.414,-111.328
1675199174.807,-17.578,-23.926,-36.133,-28.809,-20.996
1675199174.811,-25.879,-24.414,-35.645,-47.363,-21.973
1675199174.815,-28.809,-38.574,-35.645,-49.316,-214.844
1675199174.819,-17.578,-48.828,-33.203,-34.180,-148.926
1675199174.823,-14.160,-37.598,-33.691,-29.297,-50.293
1675199174.827,-33.691,-21.484,-33.691,-32.715,-56.152
1675199174.831,-52.246,-19.043,-38.574,-47.363,-161.621
1675199174.835,-31.738,-20.020,-43.457,-34.668,-165.039
1675199174.839,-4.883,-30.762,-31.738,-8.789,121.094
1675199174.843,-24.414,-34.668,-27.832,-19.531,114.258
1675199174.846,-40.039,-30.273,-26.367,-33.691,-54.688
1675199174.850,-48.340,-31.250,-18.066,-41.016,-70.801
1675199174.854,-43.457,-28.809,-10.742,-26.855,174.805
1675199174.858,-27.344,-33.203,-17.578,-25.391,125.488
1675199174.862,-20.996,-50.293,-30.273,-30.762,-109.863
1675199174.877,-24.414,-48.340,-30.762,-27.344,-14.160
1675199174.881,-36.133,-29.297,-31.738,-27.832,-49.316
1675199174.885,-46.875,-28.809,-29.785,-31.250,-117.676
1675199174.889,-35.645,-41.016,-24.902,-24.414,-78.613
1675199174.893,-18.066,-39.551,-20.996,-12.695,81.543
1675199174.897,-23.926,-36.133,-21.484,-7.812,337.402
1675199174.901,-43.457,-41.016,-28.320,-30.273,98.145
1675199174.904,-45.410,-38.086,-26.855,-43.457,-220.703
1675199174.908,-32.715,-37.598,-24.414,-31.738,-128.418
1675199174.912,-20.508,-44.922,-27.344,-20.020,62.988
1675199174.916,-25.391,-44.434,-31.250,-22.949,-74.219
1675199174.920,-34.668,-34.180,-28.809,-37.109,-178.711
1675199174.922,-42.969,-27.832,-26.855,-37.109,23.926
1675199174.926,-30.273,-25.879,-25.879,-19.043,102.051
1675199174.930,-12.207,-27.344,-17.090,-9.766,-107.422
1675199174.934,-22.461,-32.227,-19.043,-17.578,-152.344
1675199174.938,-35.156,-30.762,-25.391,-28.809,-119.141
1675199174.942,-41.504,-32.227,-23.926,-33.203,-105.469
1675199174.946,-36.133,-44.434,-24.902,-32.715,-75.684
1675199174.949,-16.113,-44.434,-28.809,-21.484,-100.098
1675199174.953,-5.859,-34.668,-18.555,-10.254,141.602
1675199174.957,-20.020,-25.879,-15.625,-22.461,101.562
1675199174.961,-37.109,-22.949,-35.645,-37.598,-160.645
1675199174.965,-31.738,-25.879,-38.086,-40.039,-206.543
1675199174.967,-16.602,-35.156,-31.250,-23.438,-126.953
1675199174.971,-15.137,-35.156,-34.180,-18.066,-134.766
1675199174.975,-26.367,-31.738,-30.273,-28.809,-220.703
1675199174.979,-38.574,-42.969,-27.344,-31.738,-67.383
1675199174.983,-30.762,-42.969,-30.273,-26.367,312.500
1675199174.987,-14.648,-37.109,-28.320,-20.020,159.180
1675199174.991,-11.230,-34.668,-27.832,-15.137,-17.090
1675199174.994,-15.137,-26.855,-27.344,-18.555,78.125
1675199174.998,-33.691,-25.879,-25.391,-24.414,157.715
1675199175.002,-39.551,-37.109,-36.621,-28.320,-101.562
1675199175.006,-14.648,-36.621,-36.133,-21.484,-174.805
1675199175.010,-5.859,-36.621,-26.367,-13.672,-55.176
1675199175.014,-30.273,-39.551,-26.855,-23.926,-68.359
1675199175.018,-48.340,-32.715,-22.461,-27.344,-112.793
1675199175.022,-40.527,-29.297,-21.484,-20.996,-143.555
1675199175.026,-26.367,-31.738,-28.809,-17.090,-66.406
1675199175.030,-11.719,-35.645,-32.715,-9.766,-27.832
1675199175.034,-19.531,-32.227,-28.809,-11.719,-47.363
1675199175.038,-33.691,-31.738,-24.414,-26.367,-69.824
1675199175.041,-32.227,-38.086,-26.367,-20.996,214.844
1675199175.045,-16.113,-35.156,-36.133,-12.207,231.445
1675199175.049,0.977,-29.297,-34.668,-7.324,-87.402
1675199175.053,-4.883,-19.531,-22.949,-10.742,-83.008
1675199175.057,-23.438,-20.020,-24.414,-22.461,-156.250
1675199175.057,-28.320,-32.715,-24.414,-24.902,-276.367
1675199175.061,-14.160,-30.273,-24.414,-18.555,-165.527
1675199175.065,-4.395,-27.344,-26.855,-10.254,-37.109
1675199175.069,-12.207,-24.414,-28.320,-14.160,27.832
1675199175.073,-22.949,-32.715,-23.438,-21.484,-90.332
1675199175.077,-26.367,-37.109,-21.484,-30.273,-238.281
1675199175.081,-13.672,-20.996,-24.902,-25.391,-90.820
1675199175.084,-4.883,-21.973,-28.809,-6.348,302.246
1675199175.088,-15.625,-31.738,-36.621,-12.207,69.824
1675199175.092,-29.785,-38.574,-36.133,-27.832,-145.020
1675199175.096,-39.062,-45.898,-29.785,-27.344,-8.789
1675199175.100,-21.484,-45.898,-28.809,-7.324,-76.660
1675199175.104,-7.324,-29.297,-35.156,0.488,-129.883
1675199175.108,-36.621,-19.043,-32.715,-19.531,-87.402
1675199175.112,-47.363,-17.090,-21.484,-23.926,-67.383
1675199175.116,-45.898,-16.602,-23.438,-36.621,-143.066
1675199175.120,-40.527,-32.715,-32.715,-44.922,-192.383
1675199175.124,-11.230,-40.527,-35.156,-19.531,-11.719
1675199175.128,-6.836,-30.273,-29.785,-3.418,326.660
1675199175.131,-33.203,-28.809,-31.738,-21.973,141.113
1675199175.135,-53.711,-39.062,-33.691,-46.875,-180.664
1675199175.139,-41.992,-40.039,-32.227,-40.039,-135.742
1675199175.143,-20.996,-30.273,-37.109,-19.043,-27.832
1675199175.147,-19.043,-24.902,-37.598,-24.902,14.648
1675199175.148,-40.527,-31.738,-33.203,-38.574,-41.504
1675199175.152,-49.805,-35.156,-22.949,-37.598,67.383
1675199175.156,-39.551,-26.367,-18.066,-36.621,101.562
1675199175.160,-32.715,-22.461,-26.855,-27.832,-72.754
1675199175.164,-26.367,-24.902,-31.738,-17.578,-99.609
1675199175.168,-31.250,-16.602,-25.391,-15.625,37.598
1675199175.172,-39.062,-17.090,-20.996,-13.672,350.586
1675199175.175,-43.457,-32.715,-24.414,-23.438,43.457
1675199175.179,-29.297,-34.668,-24.414,-22.949,-260.254
1675199175.183,-15.625,-31.250,-26.855,-9.277,-55.664
1675199175.187,-27.832,-39.062,-29.785,-10.742,-61.035
1675199175.191,-36.133,-33.691,-24.414,-25.391,-189.941
1675199175.194,-39.551,-22.461,-23.926,-34.668,-207.520
1675199175.198,-26.367,-20.020,-24.414,-26.367,-40.039
1675199175.202,-12.207,-19.043,-23.438,-14.160,-31.250
1675199175.206,-10.254,-18.066,-24.414,-5.371,-129.395
1675199175.210,-21.484,-23.438,-25.391,-18.066,-77.637
1675199175.214,-22.949,-30.762,-27.344,-23.438,126.953
1675199175.218,-9.277,-22.461,-27.832,-9.766,172.852
1675199175.221,-2.930,-22.461,-27.344,-7.812,-23.926
1675199175.225,-6.836,-24.902,-31.738,-11.230,-76.660
1675199175.229,-9.766,-21.484,-27.832,-10.742,145.020
1675199175.233,-21.973,-20.508,-22.461,-20.996,-6.836
1675199175.237,-23.926,-26.367,-28.320,-22.461,-205.078
1675199175.267,-6.348,-24.902,-29.297,-10.742,-144.043
1675199175.271,-6.348,-20.020,-19.043,-11.230,-72.754
1675199175.275,-27.344,-38.086,-20.996,-18.066,-105.469
1675199175.279,-35.156,-39.062,-25.391,-28.320,-163.574
1675199175.283,-27.344,-21.484,-20.996,-27.344,-72.754
1675199175.287,-11.230,-23.926,-20.996,-8.789,210.938
1675199175.291,-13.184,-35.645,-28.809,-12.695,121.094
1675199175.294,-33.203,-30.762,-32.227,-31.738,-71.289
1675199175.298,-38.086,-30.273,-33.691,-35.645,38.574
1675199175.302,-30.273,-36.621,-27.832,-14.648,246.582
1675199175.306,-28.320,-35.645,-30.762,-14.160,16.113
1675199175.310,-18.066,-38.574,-40.039,-15.625,-147.461
1675199175.297,-22.949,-38.086,-31.250,-13.672,-139.160
1675199175.301,-44.434,-40.527,-21.484,-36.133,-192.871
1675199175.305,-44.434,-43.945,-23.926,-41.504,-243.164
1675199175.309,-24.902,-31.738,-26.367,-25.391,-166.016
1675199175.313,-19.531,-27.344,-29.785,-24.902,-84.473
1675199175.317,-29.297,-31.250,-32.715,-38.574,-56.641
1675199175.321,-39.551,-26.855,-31.738,-48.828,-74.219
1675199175.324,-43.457,-29.297,-32.227,-42.480,-72.266
1675199175.328,-24.902,-31.250,-29.297,-19.531,130.859
1675199175.332,-17.578,-26.855,-30.273,-13.672,13.184
1675199175.336,-23.438,-26.855,-36.133,-22.461,-163.086
1675199175.340,-28.320,-32.715,-30.273,-26.855,-125.488
1675199175.343,-24.902,-43.457,-21.973,-18.066,193.848
1675199175.347,-9.277,-34.668,-25.391,-7.324,196.289
1675199175.351,-2.441,-24.414,-29.297,-4.883,-113.770
1675199175.355,-15.625,-28.320,-26.855,-8.789,-45.898
1675199175.359,-34.668,-31.250,-26.855,-20.020,31.738
1675199175.363,-41.504,-23.438,-31.738,-41.992,-74.219
1675199175.367,-33.203,-20.996,-29.785,-47.852,-84.473
1675199175.370,-16.113,-30.273,-31.250,-24.902,37.109
1675199175.374,-15.137,-31.738,-30.762,-14.160,229.980
1675199175.378,-32.715,-22.949,-26.855,-28.809,-47.363
1675199175.382,-42.480,-23.926,-23.926,-33.203,-213.867
1675199175.386,-28.809,-24.902,-24.414,-21.973,-105.957
1675199175.388,-15.625,-20.996,-31.250,-17.090,-124.023
1675199175.392,-18.555,-30.762,-31.738,-17.578,-110.840
1675199175.396,-28.809,-35.156,-30.273,-22.949,-26.367
1675199175.400,-28.809,-25.879,-40.527,-26.855,54.199
1675199175.404,-13.672,-20.020,-36.133,-20.508,-68.359
1675199175.408,-3.906,-20.020,-22.949,-14.160,-45.410
1675199175.412,-11.719,-31.250,-25.879,-13.672,60.547
1675199175.415,-29.297,-27.344,-22.461,-21.973,109.863
1675199175.419,-53.223,-32.227,-31.250,-48.340,6.836
1675199175.423,-52.734,-44.922,-43.945,-54.688,-188.965
1675199175.427,-36.133,-36.133,-41.016,-35.645,-139.160
1675199175.431,-29.785,-28.320,-39.062,-28.320,-50.293
1675199175.432,-38.574,-27.832,-39.062,-32.715,-136.230
1675199175.436,-48.340,-19.531,-39.062,-40.039,-204.590
1675199175.440,-37.109,-23.438,-38.574,-38.086,-117.188
1675199175.444,-15.137,-25.391,-33.203,-20.020,-15.625
1675199175.448,-18.066,-16.113,-28.320,-18.555,-64.941
1675199175.452,-36.621,-22.949,-35.156,-32.715,-139.648
1675199175.456,-35.645,-25.879,-34.180,-37.598,-29.297
1675199175.459,-23.438,-10.742,-25.391,-26.367,331.543
1675199175.463,-14.160,-14.160,-34.668,-18.555,250.000
1675199175.467,-6.836,-42.480,-33.203,-23.438,-44.922
1675199175.471,-19.043,-32.227,-20.996,-24.902,-18.066
1675199175.475,-36.621,-20.508,-27.344,-39.551,-80.078
1675199175.479,-35.645,-29.297,-34.180,-41.992,-161.621
1675199175.483,-19.043,-30.762,-30.273,-27.344,-96.680
1675199175.487,-9.766,-34.668,-28.809,-17.578,50.781
1675199175.491,-19.531,-45.898,-31.250,-22.461,38.574
1675199175.495,-30.762,-33.203,-28.809,-41.016,-76.172
1675199175.499,-34.668,-21.973,-31.738,-47.852,-10.254
1675199175.503,-25.391,-33.691,-35.156,-28.320,342.285
1675199175.506,-21.484,-39.551,-32.715,-19.531,249.023
1675199175.510,-25.391,-38.574,-23.926,-23.926,-114.746
1675199175.514,-26.855,-35.645,-22.461,-23.438,-26.367
1675199175.518,-35.156,-26.855,-34.668,-29.785,-12.695
1675199175.522,-31.250,-23.926,-41.992,-32.227,-159.180
1675199175.522,-23.438,-37.109,-38.574,-28.320,-174.316
1675199175.526,-34.180,-41.992,-33.691,-30.762,-138.184
1675199175.530,-48.828,-30.762,-32.227,-38.086,-122.559
1675199175.534,-53.223,-25.391,-31.738,-40.039,-138.672
1675199175.538,-38.574,-34.668,-37.598,-29.785,-175.293
1675199175.542,-22.949,-37.598,-40.527,-20.020,-13.184
1675199175.546,-20.508,-29.785,-37.109,-3.906,431.641
1675199175.549,-43.457,-32.227,-44.922,-17.090,191.895
1675199175.553,-49.316,-47.363,-42.480,-41.504,-284.668
1675199175.557,-31.738,-35.156,-37.109,-30.762,-219.727
1675199175.561,-23.438,-20.020,-45.898,-20.020,-111.328
1675199175.565,-5.371,-18.066,-46.875,-3.906,-132.812
1675199175.585,-16.113,-22.949,-37.109,-12.695,-144.531
1675199175.589,-59.570,-27.344,-23.926,-42.480,-37.109
1675199175.593,-33.691,-23.926,-24.414,-21.973,-77.637
1675199175.597,-14.648,-27.344,-21.484,-19.531,-173.340
1675199175.601,-26.367,-30.762,-21.973,-20.508,-72.266
1675199175.605,-30.273,-27.344,-27.832,-17.090,20.996
1675199175.609,-44.434,-33.691,-29.297,-38.086,-8.301
1675199175.612,-38.574,-47.852,-34.668,-37.598,-160.645
1675199175.616,-17.578,-49.316,-38.086,-24.902,-136.230
1675199175.620,-14.648,-35.645,-38.086,-13.184,203.613
1675199175.624,-41.992,-33.203,-42.480,-29.785,7.812
1675199175.628,-53.223,-31.250,-40.039,-41.504,-255.859
1675199175.627,-40.527,-24.902,-32.715,-30.273,-137.695
1675199175.631,-22.461,-34.180,-34.180,-19.043,-81.055
1675199175.635,-12.695,-40.527,-31.250,-10.742,-51.270
1675199175.639,-20.020,-29.785,-24.414,-16.113,-63.477
1675199175.643,-34.180,-34.668,-20.508,-25.391,-57.129
1675199175.647,-36.133,-31.738,-19.043,-26.367,124.023
1675199175.651,-21.484,-20.020,-23.438,-20.996,77.148
1675199175.654,-14.160,-26.367,-26.855,-14.160,-58.594
1675199175.658,-20.020,-24.414,-18.555,-14.160,45.410
1675199175.662,-33.203,-12.695,-11.719,-13.184,398.438
1675199175.666,-41.504,-24.902,-23.926,-20.508,271.484
1675199175.670,-26.855,-34.180,-31.738,-21.973,-141.602
1675199175.672,-13.184,-29.297,-26.367,-4.395,-112.305
1675199175.676,-22.461,-29.785,-29.297,-6.836,-89.844
1675199175.680,-38.086,-25.879,-31.250,-24.902,-210.449
1675199175.684,-40.039,-26.367,-23.438,-27.344,-238.770
1675199175.688,-32.227,-33.203,-22.949,-21.484,-153.809
1675199175.692,-24.902,-37.109,-26.367,-17.090,9.277
1675199175.696,-33.691,-32.715,-25.391,-20.508,13.184
1675199175.699,-47.852,-33.691,-25.879,-31.250,-66.895
1675199175.703,-41.992,-34.668,-21.484,-24.414,195.801
1675199175.707,-30.273,-50.293,-24.414,-22.949,241.699
1675199175.711,-25.391,-47.852,-29.785,-22.461,-68.359
1675199175.715,-34.180,-31.250,-30.273,-21.973,-99.121
1675199175.717,-48.828,-27.832,-24.414,-32.715,-75.684
1675199175.721,-51.270,-24.902,-26.367,-40.527,-194.824
1675199175.725,-33.691,-31.738,-35.645,-33.691,-250.488
1675199175.729,-14.648,-38.574,-27.832,-19.043,-92.285
1675199175.733,-21.484,-35.645,-20.508,-22.949,123.535
1675199175.737,-43.945,-33.691,-21.973,-42.480,14.160
1675199175.741,-52.734,-42.969,-20.508,-52.246,-192.383
1675199175.744,-45.410,-43.457,-24.902,-41.992,-91.309
1675199175.748,-35.156,-40.039,-27.832,-26.855,212.402
1675199175.752,-31.738,-31.250,-30.762,-30.762,76.660
1675199175.756,-41.504,-27.832,-29.297,-40.039,-50.781
1675199175.760,-55.664,-33.203,-30.762,-48.340,28.320
1675199175.763,-45.898,-36.621,-34.180,-45.410,-29.297
1675199175.767,-23.926,-46.387,-33.691,-26.367,-131.836
1675199175.771,-23.438,-46.875,-29.785,-19.043,-107.910
1675199175.775,-40.527,-42.969,-23.438,-29.785,-71.777
1675199175.779,-47.852,-44.434,-19.531,-29.297,-156.738
1675199175.783,-41.016,-37.598,-18.066,-21.484,-145.996
1675199175.787,-19.043,-19.531,-20.020,-17.578,-77.637
1675199175.790,-11.230,-19.043,-24.414,-3.418,185.059
1675199175.794,-32.227,-32.715,-28.809,-15.625,124.023
1675199175.798,-45.898,-36.621,-28.809,-35.156,-187.500
1675199175.802,-33.691,-49.805,-20.508,-24.902,-170.898
1675199175.806,-19.043,-62.500,-17.090,-5.371,-80.078
1675199175.809,-20.996,-50.293,-28.320,-3.906,-64.453
1675199175.813,-34.180,-27.344,-29.785,-18.555,-37.109
1675199175.817,-46.387,-18.066,-27.832,-29.297,40.527
1675199175.821,-41.504,-16.113,-26.855,-26.367,250.488
1675199175.825,-28.320,-15.625,-32.715,-20.508,75.195
1675199175.829,-16.113,-23.926,-42.480,-16.113,-8.789
1675199175.833,-21.484,-26.367,-34.180,-19.043,122.070
1675199175.836,-46.875,-20.020,-19.531,-35.645,168.457
1675199175.840,-58.105,-23.438,-25.879,-52.246,-112.793
1675199175.844,-36.621,-21.484,-32.227,-41.504,-228.516
1675199175.848,-19.043,-28.320,-35.645,-25.879,-79.590
1675199175.852,-32.715,-33.691,-43.945,-38.574,-70.801
1675199175.854,-50.293,-34.668,-43.945,-55.176,-170.410
1675199175.858,-39.062,-39.551,-42.969,-49.805,-191.406
1675199175.862,-17.090,-35.645,-42.969,-36.621,-147.949
1675199175.866,-12.207,-33.203,-45.410,-31.738,-140.137
1675199175.870,-15.625,-25.391,-49.316,-32.715,-104.004
1675199175.874,-28.809,-29.785,-48.828,-31.738,-67.383
1675199175.878,-37.598,-31.250,-42.480,-24.902,246.582
1675199175.881,-25.391,-20.020,-44.922,-17.578,375.488
1675199175.885,-14.160,-35.645,-53.711,-16.113,-68.848
1675199175.889,-14.160,-37.109,-54.199,-11.230,-134.277
1675199175.893,-24.902,-30.762,-43.945,-18.066,-68.848
1675199175.897,-28.809,-27.832,-31.738,-20.996,-172.363
1675199175.897,-18.066,-26.367,-32.227,-8.789,-155.762
1675199175.901,-0.488,-31.250,-38.574,-3.418,-80.078
1675199175.905,2.930,-32.227,-34.668,1.953,63.965
1675199175.909,-15.137,-34.180,-33.203,-11.230,116.699
1675199175.913,-33.203,-29.297,-33.691,-33.203,-130.859
1675199175.917,-24.414,-26.855,-29.785,-33.203,-70.312
1675199175.921,-4.883,-23.438,-28.320,-15.137,408.203
1675199175.924,-18.555,-26.855,-33.203,-16.113,267.578
1675199175.928,-35.156,-29.785,-30.273,-28.809,-98.145
1675199175.932,-37.598,-20.508,-22.461,-35.156,-144.531
1675199175.936,-24.902,-16.113,-29.297,-32.715,-133.789
1675199175.940,7.812,-20.020,-35.156,-9.766,-146.484
1675199175.944,-3.906,-34.180,-23.438,-9.277,-120.117
1675199175.948,-25.879,-43.945,-24.902,-23.926,-83.496
1675199175.952,-41.504,-40.527,-23.926,-33.203,-188.477
1675199175.956,-39.551,-30.273,-15.625,-36.133,-289.062
1675199175.960,-16.602,-22.949,-18.555,-29.785,-216.797
1675199175.964,-13.184,-26.855,-21.973,-28.809,35.645
1675199175.968,-28.809,-32.715,-20.508,-32.227,69.824
1675199175.971,-40.039,-37.598,-18.555,-41.504,-174.805
1675199175.975,-35.645,-38.574,-17.090,-37.109,-208.984
1675199175.979,-18.555,-36.133,-22.461,-17.578,83.496
1675199175.983,-19.043,-36.621,-23.438,-14.160,35.156
1675199175.987,-25.879,-36.621,-11.719,-16.113,-88.867
1675199176.002,-28.320,-28.320,-6.348,-23.438,-52.246
1675199176.006,-36.621,-27.832,-15.625,-28.320,-61.523
1675199176.010,-27.832,-29.785,-25.391,-21.484,-98.145
1675199176.014,-19.531,-32.715,-28.809,-16.602,-73.730
1675199176.018,-27.344,-47.852,-30.273,-15.625,34.668
1675199176.022,-41.504,-45.898,-29.297,-14.160,222.168
1675199176.026,-49.805,-29.297,-35.156,-30.273,42.480
1675199176.029,-37.598,-31.250,-35.645,-37.109,-228.027
1675199176.033,-14.648,-32.227,-32.227,-18.066,-62.012
1675199176.037,-17.090,-22.461,-33.691,-10.254,167.969
1675199176.041,-45.410,-20.020,-34.668,-32.227,-61.523
1675199176.045,-55.176,-21.484,-29.297,-39.062,-210.938
1675199176.047,-30.762,-20.020,-21.973,-19.531,-56.152
1675199176.051,-11.719,-27.344,-25.879,-17.090,24.414
1675199176.055,-15.625,-31.738,-28.320,-24.414,-51.270
1675199176.059,-29.297,-27.832,-28.809,-31.738,-13.184
1675199176.063,-38.574,-29.785,-26.855,-37.598,91.309
1675199176.067,-26.367,-33.203,-29.297,-31.738,17.090
1675199176.071,-5.371,-28.320,-34.668,-15.625,-102.539
1675199176.074,-6.836,-37.598,-22.461,-14.648,-131.836
1675199176.078,-24.414,-33.691,-18.066,-26.367,161.621
1675199176.082,-34.668,-21.973,-32.715,-35.645,29.785
1675199176.086,-25.391,-30.273,-39.551,-38.574,-225.586
1675199176.090,-1.953,-31.738,-37.109,-18.066,-92.285
1675199176.092,1.465,-31.738,-32.715,-7.324,-47.363
1675199176.096,-22.461,-33.203,-31.738,-21.484,-107.422
1675199176.100,-36.621,-32.227,-28.320,-32.227,-147.461
1675199176.104,-25.879,-26.367,-22.949,-29.297,-26.367
1675199176.108,-9.277,-26.367,-22.949,-14.160,133.301
1675199176.112,-7.324,-37.598,-25.391,-9.277,91.309
1675199176.116,-20.996,-34.668,-25.879,-22.949,-71.289
1675199176.119,-36.621,-25.391,-23.438,-35.156,34.668
1675199176.123,-28.809,-24.414,-21.484,-28.320,348.145
1675199176.127,-17.090,-35.645,-35.156,-20.996,64.453
1675199176.131,-15.137,-41.992,-39.551,-19.531,-209.473
1675199176.135,-21.484,-36.133,-30.762,-22.949,-90.820
1675199176.138,-31.250,-31.250,-23.926,-35.156,-117.188
1675199176.142,-32.715,-27.344,-24.414,-41.504,-204.102
1675199176.146,-29.297,-28.320,-30.273,-32.715,-140.625
1675199176.150,-18.555,-36.133,-36.133,-21.973,-43.457
1675199176.154,-24.414,-42.969,-32.715,-34.668,-41.016
1675199176.158,-42.969,-37.598,-25.879,-47.363,-54.199
1675199176.162,-42.480,-31.250,-29.297,-45.898,-99.609
1675199176.165,-28.809,-29.297,-29.785,-33.203,116.211
1675199176.169,-23.926,-34.180,-37.109,-25.879,161.621
1675199176.173,-27.344,-34.180,-37.598,-32.715,-36.133
1675199176.177,-32.715,-22.461,-27.344,-36.621,-23.926
1675199176.181,-34.668,-17.578,-31.250,-36.621,5.859
1675199176.182,-24.414,-29.297,-38.086,-38.574,-105.957
1675199176.186,-9.277,-28.809,-31.738,-29.785,-172.852
1675199176.190,-12.695,-15.625,-23.438,-21.484,-112.305
1675199176.194,-35.156,-20.508,-28.809,-31.250,-4.883
1675199176.198,-45.410,-34.180,-37.109,-43.457,-66.406
1675199176.202,-28.809,-38.086,-33.203,-35.156,-106.445
1675199176.206,-9.277,-27.832,-20.996,-16.113,39.551
1675199176.209,-17.578,-22.461,-18.555,-9.766,342.773
1675199176.213,-45.898,-33.203,-26.855,-27.344,108.887
1675199176.217,-56.152,-31.250,-25.391,-41.504,-205.566
1675199176.221,-32.227,-26.367,-17.090,-23.926,-94.238
1675199176.225,-4.883,-28.809,-24.414,-4.395,-77.148
1675199176.254,-20.020,-23.926,-34.668,-23.926,-136.230
1675199176.258,-39.062,-20.020,-36.621,-42.969,-89.844
1675199176.262,-43.945,-15.625,-32.715,-51.758,11.230
1675199176.266,-35.156,-9.766,-30.762,-46.875,-84.473
1675199176.270,-11.230,-11.719,-41.016,-30.762,-175.293
1675199176.274,-17.578,-13.184,-38.574,-34.668,-8.789
1675199176.278,-34.668,-11.719,-29.297,-33.691,265.137
1675199176.281,-35.645,-24.902,-33.691,-36.133,87.891
1675199176.285,-33.203,-42.969,-36.133,-40.039,-216.309
1675199176.289,-13.672,-39.062,-37.598,-24.414,-167.480
1675199176.293,3.418,-25.391,-37.109,-12.207,-30.762
1675199176.297,-15.625,-30.762,-37.598,-20.508,-104.980
1675199176.272,-38.574,-27.832,-30.273,-28.320,-250.000
1675199176.276,-28.320,-15.625,-20.020,-25.879,-257.812
1675199176.280,-12.695,-23.438,-26.855,-20.508,-107.422
1675199176.284,-15.137,-31.250,-36.621,-14.648,38.574
1675199176.288,-27.344,-22.949,-36.133,-22.461,-82.031
1675199176.292,-38.086,-19.043,-36.133,-36.621,-22.461
1675199176.296,-32.227,-27.832,-31.250,-29.785,121.094
1675199176.299,-19.043,-35.156,-27.344,-20.508,21.484
1675199176.303,-11.230,-29.297,-27.832,-14.648,-51.758
1675199176.307,-18.066,-24.414,-29.785,-14.160,-24.902
1675199176.311,-23.926,-19.531,-33.691,-17.578,285.156
1675199176.315,-29.297,-23.438,-40.527,-29.297,223.633
1675199176.319,-19.043,-26.367,-40.527,-22.461,-90.820
1675199176.323,0.488,-19.531,-35.645,-1.465,-34.180
1675199176.327,-6.348,-20.020,-36.133,-0.977,-83.984
1675199176.331,-27.344,-20.508,-33.691,-15.625,-209.961
1675199176.335,-37.598,-23.926,-30.273,-20.020,-157.715
1675199176.339,-26.367,-43.457,-28.809,-6.836,39.062
1675199176.343,-11.230,-36.621,-31.250,-0.488,11.230
1675199176.346,-21.973,-20.020,-32.715,-7.812,-10.742
1675199176.350,-36.133,-24.414,-31.250,-20.508,-37.598
1675199176.354,-32.227,-24.902,-25.391,-20.020,129.395
1675199176.358,-17.578,-20.996,-24.902,-10.742,78.125
1675199176.362,-1.465,-28.809,-33.203,-7.324,-113.281
1675199176.378,-4.883,-35.645,-35.645,-7.324,-24.902
1675199176.382,-25.391,-28.320,-33.691,-18.555,-96.191
1675199176.386,-40.039,-24.414,-28.809,-32.227,-108.398
1675199176.390,-35.645,-40.039,-27.344,-31.738,-20.508
1675199176.394,-16.602,-45.898,-30.273,-12.207,30.762
1675199176.398,-17.578,-30.273,-30.762,-3.418,295.410
1675199176.402,-38.574,-21.973,-28.320,-16.602,150.879
1675199176.405,-44.434,-23.438,-28.320,-28.809,-191.895
1675199176.409,-26.855,-31.738,-29.785,-22.461,-62.988
1675199176.413,-12.695,-32.227,-33.203,-7.324,172.363
1675199176.417,-16.113,-22.461,-34.180,-12.207,-38.574
1675199176.421,-28.320,-17.578,-30.762,-25.879,-177.734
1675199176.423,-40.039,-24.902,-29.297,-28.809,-63.477
1675199176.427,-32.227,-38.086,-36.133,-25.879,-116.211
1675199176.431,-20.020,-37.109,-37.598,-21.484,-257.812
1675199176.435,-21.973,-24.902,-32.227,-14.160,-202.637
1675199176.439,-29.297,-20.020,-25.391,-18.066,-89.844
1675199176.443,-44.434,-20.020,-27.832,-32.715,-3.906
1675199176.447,-44.434,-24.414,-31.738,-35.156,-67.383
1675199176.450,-22.461,-29.297,-31.738,-20.508,-51.270
1675199176.454,-6.836,-28.809,-31.738,-6.836,240.234
1675199176.458,-17.578,-29.785,-31.250,-20.020,133.789
1675199176.462,-41.504,-41.992,-33.203,-42.480,-188.965
1675199176.466,-27.344,-51.758,-36.133,-33.203,-227.051
1675199176.468,20.996,-39.062,-40.039,6.836,-161.621
1675199176.472,1.465,-24.414,-27.832,-7.324,-91.797
1675199176.476,-50.293,-20.020,-17.578,-58.105,-122.070
1675199176.480,-61.523,-20.508,-22.949,-59.570,-73.242
1675199176.484,-77.637,-28.809,-23.926,-59.082,173.828
1675199176.488,-58.594,-39.062,-29.785,-54.199,73.730
1675199176.492,-39.062,-37.109,-26.367,-40.527,-86.914
1675199176.495,-59.570,-33.691,-25.879,-51.270,25.879
1675199176.499,-63.477,-36.621,-27.344,-45.898,219.727
1675199176.503,-62.988,-43.457,-26.367,-42.480,-76.660
1675199176.507,-56.152,-52.246,-34.668,-35.645,-261.230
1675199176.511,-43.945,-60.059,-34.180,-24.414,-96.191
1675199176.513,-48.340,-49.805,-30.762,-36.621,-47.363
1675199176.517,-60.547,-40.039,-36.621,-42.480,-167.969
1675199176.521,-61.035,-33.691,-33.203,-39.062,-211.914
1675199176.525,-44.434,-32.715,-29.785,-29.785,-90.332
1675199176.529,-23.926,-35.645,-35.156,-13.672,-81.055
1675199176.533,-30.273,-36.621,-38.086,-20.020,-13.672
1675199176.537,-47.852,-38.574,-32.715,-37.109,9.277
1675199176.540,-45.898,-38.574,-21.484,-34.180,269.531
1675199176.544,-36.133,-45.898,-22.949,-26.855,371.582
1675199176.548,-23.926,-57.617,-29.785,-27.344,3.418
1675199176.552,-19.531,-46.387,-28.320,-25.391,-73.242
1675199176.556,-27.344,-27.344,-25.879,-29.297,-14.160
1675199176.557,-40.039,-23.438,-23.926,-36.133,-125.977
1675199176.561,-32.715,-22.949,-22.949,-25.879,-206.055
1675199176.565,-11.230,-30.762,-20.020,-8.789,-53.711
1675199176.569,-3.906,-39.062,-19.531,-8.789,83.496
1675199176.573,-22.461,-39.062,-18.555,-23.438,-52.734
1675199176.577,-35.156,-33.203,-18.066,-31.250,-139.648
1675199176.581,-22.461,-29.297,-20.508,-16.113,-52.246
1675199176.584,0.000,-27.344,-21.484,11.719,281.250
1675199176.588,9.766,-23.438,-23.926,5.859,110.840
1675199176.592,-7.812,-25.879,-20.508,-13.672,-213.867
1675199176.596,-27.344,-23.926,-21.484,-19.531,-181.152
1675199176.600,-24.414,-18.066,-33.691,-25.391,-153.320
1675199176.604,-1.465,-14.160,-31.738,-19.531,-206.543
1675199176.608,2.930,-25.391,-32.227,-15.625,-126.953
1675199176.612,-11.719,-28.320,-35.645,-25.391,-50.293
1675199176.616,-28.809,-14.160,-35.645,-37.598,-138.672
1675199176.620,-35.156,-18.066,-31.250,-42.969,-207.031
1675199176.624,-19.531,-24.414,-28.809,-35.156,-94.238
1675199176.628,-9.766,-27.344,-28.320,-18.555,245.605
1675199176.631,-22.461,-27.344,-31.738,-27.344,169.434
1675199176.635,-40.039,-22.461,-35.645,-51.758,-116.699
1675199176.639,-42.480,-21.484,-31.738,-51.270,-68.359
1675199176.643,-20.996,-22.461,-28.809,-27.832,-10.742
1675199176.647,-8.301,-28.809,-27.344,-20.996,-25.879
1675199176.649,-14.648,-24.414,-24.414,-27.344,-47.363
1675199176.653,-39.062,-20.996,-21.484,-31.250,-100.098
1675199176.657,-47.852,-18.555,-20.996,-35.156,-35.156
1675199176.661,-32.715,-25.391,-25.879,-27.832,-33.691
1675199176.665,-26.855,-36.621,-29.297,-18.555,-117.676
1675199176.669,-26.367,-34.668,-25.879,-21.484,26.855
1675199176.673,-38.086,-31.738,-22.949,-23.438,422.852
1675199176.676,-44.922,-43.457,-24.414,-34.180,146.484
1675199176.680,-24.902,-41.992,-25.391,-26.367,-211.914
1675199176.684,-5.371,-19.043,-24.902,-2.441,-6.348
1675199176.688,-8.789,-19.531,-26.367,-7.812,94.238
1675199176.692,-25.879,-21.484,-36.133,-22.949,-104.004
1675199176.694,-25.391,-21.484,-37.598,-29.785,-171.387
1675199176.698,-20.996,-40.527,-37.109,-24.902,-87.402
1675199176.702,-15.625,-36.621,-39.062,-14.160,-45.410
1675199176.706,-8.789,-23.438,-36.133,-12.695,-20.996
1675199176.710,-19.531,-33.203,-36.133,-29.297,-94.727
1675199176.714,-26.855,-30.762,-32.715,-37.598,84.473
1675199176.718,-21.484,-24.902,-38.086,-27.832,194.824
1675199176.721,-10.742,-29.785,-43.945,-25.391,-97.168
1675199176.725,0.488,-20.508,-31.250,-15.137,-149.902
1675199176.729,-12.695,-19.531,-23.438,-9.277,-32.715
1675199176.733,-43.457,-30.762,-29.785,-27.344,-183.594
1675199176.737,-35.645,-39.551,-23.926,-28.320,-264.648
1675199176.752,-10.254,-37.598,-24.902,-6.348,-104.492
1675199176.756,-13.184,-33.691,-32.227,0.000,-52.246
1675199176.760,-26.855,-39.062,-30.273,-9.766,-60.059
1675199176.764,-39.551,-31.738,-29.297,-20.508,-71.777
1675199176.768,-34.180,-25.879,-24.414,-15.625,-61.035
1675199176.772,-9.277,-34.180,-16.602,8.301,312.988
1675199176.776,-4.883,-27.344,-17.578,5.371,178.711
1675199176.779,-22.461,-24.902,-29.785,-18.066,-67.871
1675199176.783,-39.062,-29.297,-31.738,-37.598,-72.754
1675199176.787,-36.621,-36.133,-22.949,-28.809,-87.402
1675199176.791,-23.438,-47.363,-26.855,-17.090,-119.141
1675199176.795,-12.695,-40.527,-32.227,-19.531,-100.586
1675199176.799,-22.949,-23.438,-25.879,-19.043,73.242
1675199176.803,-45.410,-18.555,-26.855,-37.598,59.082
1675199176.807,-45.410,-25.391,-37.109,-45.898,-206.055
1675199176.811,-32.715,-33.203,-29.785,-25.879,-173.828
1675199176.815,-16.113,-28.320,-26.367,-25.391,-59.570
1675199176.819,-17.090,-21.484,-32.227,-30.762,-10.254
1675199176.823,-37.598,-21.973,-28.809,-27.344,-78.125
1675199176.826,-38.086,-22.949,-26.367,-25.391,-219.727
1675199176.830,-15.625,-20.996,-24.902,-14.648,45.898
1675199176.834,-2.930,-36.621,-28.809,-4.883,129.395
1675199176.838,-12.207,-46.875,-30.762,-15.625,-26.367
1675199176.842,-24.414,-26.855,-21.973,-28.320,-76.172
1675199176.842,-30.762,-14.160,-21.484,-29.785,-95.703
1675199176.846,-0.488,-20.508,-34.668,-9.766,-160.156
1675199176.850,23.926,-22.461,-33.691,7.324,-118.652
1675199176.854,-16.113,-25.391,-26.367,-24.414,9.277
1675199176.858,-26.855,-35.645,-32.227,-33.691,-15.137
1675199176.862,-24.414,-29.297,-26.855,-25.391,-145.508
1675199176.866,-27.832,-29.297,-20.508,-26.367,-119.629
1675199176.869,-8.789,-29.785,-23.438,-13.672,75.684
1675199176.873,-14.160,-24.414,-20.508,-12.695,428.223
1675199176.877,-24.902,-26.855,-25.879,-20.996,205.566
1675199176.881,-25.391,-28.809,-24.902,-32.715,-222.168
1675199176.885,-17.090,-40.527,-20.508,-31.250,-134.277
1675199176.890,-5.371,-34.668,-22.949,-12.207,-38.086
1675199176.894,-7.324,-21.484,-22.461,-9.277,-50.293
1675199176.898,-20.508,-23.926,-22.461,-19.043,-90.332
1675199176.902,-26.855,-24.414,-20.508,-24.414,-14.160
1675199176.906,-23.438,-28.809,-25.879,-29.785,-85.938
1675199176.910,-4.883,-37.598,-25.391,-15.625,-114.258
1675199176.914,4.395,-38.574,-23.926,-2.930,67.383
1675199176.917,-11.719,-35.645,-24.414,-13.184,234.863
1675199176.921,-34.668,-34.180,-26.367,-30.273,56.641
1675199176.925,-33.203,-34.668,-30.762,-37.598,-243.164
1675199176.929,-9.766,-30.273,-23.438,-20.996,-189.941
1675199176.933,1.465,-31.250,-22.949,-8.301,-74.219
1675199176.932,-18.066,-18.555,-29.297,-19.043,-163.574
1675199176.936,-39.062,-14.648,-28.320,-34.668,-264.160
1675199176.940,-37.598,-20.508,-25.879,-31.738,-237.305
1675199176.944,-18.555,-20.508,-24.902,-16.113,-126.953
1675199176.948,-9.766,-31.250,-33.691,-14.648,-98.633
1675199176.952,-21.973,-38.086,-38.086,-25.879,-17.578
1675199176.956,-40.039,-33.203,-29.785,-35.645,62.500
1675199176.959,-40.039,-33.203,-19.531,-27.344,301.270
1675199176.963,-30.762,-40.527,-25.879,-23.926,184.082
1675199176.967,-22.949,-36.621,-30.762,-21.973,-172.852
1675199176.971,-23.438,-34.180,-25.879,-13.672,-98.145
1675199176.975,-38.086,-36.621,-26.855,-26.367,-68.848
1675199176.979,-43.457,-31.250,-33.203,-40.527,-169.922
1675199176.983,-24.902,-23.926,-38.574,-29.297,-171.875
1675199176.987,-5.371,-18.066,-33.691,-7.324,-52.734
1675199176.991,-10.742,-22.949,-30.762,-9.766,-73.730
1675199176.995,-29.297,-23.438,-34.180,-23.438,-187.988
1675199176.999,-39.062,-21.973,-29.297,-30.762,-117.188
1675199177.003,-23.438,-32.715,-29.297,-25.879,246.582
1675199177.006,-13.672,-38.574,-35.156,-14.160,233.887
1675199177.010,-22.949,-34.668,-35.645,-22.461,28.320
1675199177.014,-36.133,-34.180,-30.273,-28.809,-38.086
1675199177.018,-38.086,-29.297,-26.855,-23.926,-25.391
1675199177.022,-27.344,-25.391,-31.250,-20.508,-89.844
1675199177.022,-11.719,-20.020,-32.227,-6.348,-161.133
1675199177.026,-18.066,-20.996,-25.391,-7.812,-127.930
1675199177.030,-33.691,-27.832,-23.438,-20.996,-83.008
1675199177.034,-36.133,-31.250,-28.320,-24.414,-35.645
1675199177.038,-36.133,-35.645,-29.297,-25.879,-111.816
1675199177.042,-21.973,-31.738,-29.297,-9.277,25.879
1675199177.046,-12.207,-40.039,-29.297,1.953,420.898
1675199177.049,-33.691,-33.691,-32.227,-25.879,133.301
1675199177.053,-48.828,-16.113,-29.297,-45.898,-236.816
1675199177.057,-38.086,-20.508,-36.133,-35.156,-145.508
1675199177.061,-23.438,-20.020,-40.527,-29.785,-91.309
1675199177.065,-19.531,-17.578,-29.785,-26.367,-55.176
1675199177.070,-23.926,-18.555,-26.367,-30.273,-104.980
1675199177.074,-35.645,-13.184,-24.414,-37.598,-74.219
1675199177.078,-32.715,-12.207,-27.832,-36.133,-113.281
1675199177.082,-11.230,-20.020,-31.250,-28.809,-215.820
1675199177.086,-7.812,-20.020,-26.367,-17.578,-117.676
1675199177.090,-16.602,-12.695,-28.809,-22.949,66.406
1675199177.094,-23.926,-16.602,-33.691,-39.551,20.020
1675199177.097,-26.367,-21.973,-32.715,-37.109,-145.996
1675199177.101,-12.207,-19.043,-32.715,-18.555,-119.141
1675199177.105,-3.906,-18.555,-31.738,-1.465,219.727
1675199177.109,-23.438,-30.762,-38.574,-16.602,153.809
1675199177.113,-41.504,-29.785,-41.016,-31.738,-163.086
1675199177.127,-38.574,-22.949,-33.691,-27.832,-197.266
1675199177.131,-27.344,-24.414,-29.785,-25.879,-117.676
1675199177.135,-13.184,-29.785,-39.551,-15.625,-50.293
1675199177.139,-2.930,-29.297,-40.527,-7.812,-24.902
1675199177.143,-46.387,-28.320,-20.020,-38.086,64.941
1675199177.147,-62.012,-30.273,-22.461,-35.156,444.336
1675199177.151,-31.738,-39.551,-24.414,-13.672,397.949
1675199177.154,-36.621,-38.086,-31.250,-31.738,-45.898
1675199177.158,-29.785,-27.344,-33.203,-19.531,-56.152
1675199177.162,-33.691,-25.391,-25.879,-20.996,0.000
1675199177.166,-49.805,-31.250,-34.668,-42.480,-171.387
1675199177.170,-28.320,-37.598,-35.645,-29.297,-229.004
1675199177.172,-3.906,-38.086,-29.297,-12.207,-34.668
1675199177.176,-22.461,-37.109,-37.109,-24.414,-26.855
1675199177.180,-41.016,-42.480,-37.109,-36.133,-192.871
1675199177.184,-38.574,-33.691,-26.367,-30.762,-231.445
1675199177.188,-34.180,-16.602,-28.809,-20.508,-97.656
1675199177.192,-25.879,-18.555,-28.320,-14.160,17.090
1675199177.196,-31.250,-24.902,-22.949,-21.973,48.340
1675199177.199,-42.969,-20.508,-20.996,-27.344,63.477
1675199177.203,-44.922,-15.137,-21.973,-28.320,205.078
1675199177.207,-41.992,-27.344,-31.738,-37.109,208.496
1675199177.211,-26.855,-35.156,-44.922,-40.527,-70.801
1675199177.215,-23.438,-27.832,-42.480,-36.133,-119.141
1675199177.217,-41.992,-29.297,-33.203,-41.992,-47.852
1675199177.221,-53.223,-42.480,-30.762,-49.805,-83.984
1675199177.225,-54.688,-45.898,-37.109,-52.734,-184.082
1675199177.229,-45.898,-35.645,-41.504,-41.016,-36.621
1675199177.233,-33.691,-26.855,-40.527,-22.461,116.699
1675199177.237,-40.527,-20.508,-42.480,-37.109,42.480
1675199177.241,-55.664,-24.902,-36.621,-64.453,-65.918
1675199177.244,-44.922,-30.273,-26.367,-55.176,-89.844
1675199177.248,-20.996,-19.043,-28.320,-29.785,161.621
1675199177.252,-18.066,-19.043,-32.715,-36.133,18.555
1675199177.256,-29.297,-28.809,-28.809,-45.898,-189.453
1675199177.260,-45.898,-25.391,-31.250,-51.758,-73.242
1675199177.277,-53.711,-25.391,-40.527,-54.199,-55.176
1675199177.281,-32.715,-26.855,-35.645,-34.180,-171.875
1675199177.285,-22.461,-27.344,-30.762,-21.484,-116.699
1675199177.289,-39.062,-32.715,-35.645,-29.297,-32.227
1675199177.293,-56.152,-37.598,-36.133,-37.109,-71.289
1675199177.297,-51.270,-32.227,-34.668,-29.785,-194.824
1675199177.301,-26.367,-23.926,-33.691,-15.137,-160.156
1675199177.304,-8.301,-24.414,-25.879,-4.395,191.895
1675199177.308,-23.438,-34.668,-26.855,-15.137,147.949
1675199177.312,-43.457,-41.992,-29.297,-33.691,-156.250
1675199177.316,-40.039,-28.320,-23.438,-35.645,-130.371
1675199177.320,-24.414,-24.902,-23.438,-18.555,-20.508
1675199177.308,-18.555,-34.668,-29.785,-5.859,38.574
1675199177.312,-27.344,-35.645,-32.227,-13.184,-64.453
1675199177.316,-36.621,-34.180,-30.273,-17.090,-93.262
1675199177.320,-41.016,-33.691,-31.250,-11.719,188.965
1675199177.324,-33.691,-44.434,-41.504,-14.160,26.367
1675199177.328,-10.742,-44.434,-44.434,-7.324,-125.488
1675199177.332,-11.719,-33.691,-34.180,1.465,80.566
1675199177.335,-38.574,-39.062,-32.227,-18.066,107.422
1675199177.339,-44.434,-30.273,-35.645,-36.133,-132.812
1675199177.343,-28.320,-25.391,-32.227,-27.344,-286.621
1675199177.347,-11.230,-28.809,-28.320,-6.348,-41.992
1675199177.351,-16.113,-32.715,-25.879,-0.488,272.461
1675199177.354,-33.203,-37.109,-23.926,-24.414,21.973
1675199177.358,-41.016,-33.203,-23.438,-36.133,-124.512
1675199177.362,-32.227,-31.250,-28.320,-24.414,-84.961
1675199177.366,-11.719,-32.715,-32.715,-0.488,-112.793
1675199177.370,-15.625,-37.598,-30.273,-1.953,-34.180
1675199177.374,-26.855,-38.574,-26.367,-21.973,-14.160
1675199177.378,-18.066,-21.973,-17.090,-5.859,212.891
1675199177.381,-22.949,-17.090,-12.207,-11.719,254.395
1675199177.385,-32.227,-22.461,-20.996,-37.109,-121.582
1675199177.389,-28.320,-27.832,-27.832,-30.273,-132.812
1675199177.393,-31.738,-31.250,-30.762,-30.762,-88.379
1675199177.397,-55.176,-33.203,-31.738,-58.105,-241.211
1675199177.397,-55.664,-33.691,-28.320,-57.129,-281.738
1675199177.401,-26.367,-29.297,-22.461,-30.762,-162.598
1675199177.405,-14.648,-27.344,-20.508,-20.996,-28.809
1675199177.409,-23.926,-31.738,-19.043,-21.484,-25.391
1675199177.413,-39.062,-35.156,-25.879,-33.691,-152.344
1675199177.417,-34.180,-30.762,-26.367,-37.109,-80.078
1675199177.421,-7.812,-39.551,-21.484,-17.578,408.203
1675199177.424,-4.395,-42.969,-30.273,-17.090,350.586
1675199177.428,-26.855,-34.668,-35.156,-36.133,-104.004
1675199177.432,-42.480,-35.156,-29.785,-39.551,-119.141
1675199177.436,-42.480,-30.762,-28.320,-37.598,-67.871
1675199177.440,-26.367,-32.715,-29.785,-35.645,-160.645
1675199177.444,-19.531,-41.016,-31.250,-25.391,-112.305
1675199177.448,-25.879,-36.621,-28.809,-25.391,-19.531
1675199177.452,-39.062,-26.855,-25.391,-33.691,-118.652
1675199177.456,-37.598,-24.902,-25.391,-36.133,-234.863
1675199177.460,-20.508,-28.320,-25.391,-22.949,-138.184
1675199177.464,-15.137,-36.621,-26.367,-12.207,99.609
1675199177.468,-20.020,-41.016,-22.461,-8.789,126.953
1675199177.471,-44.434,-26.367,-26.855,-29.785,-38.574
1675199177.475,-60.059,-23.926,-31.738,-50.781,-145.020
1675199177.479,-36.621,-25.879,-30.273,-28.809,180.664
1675199177.483,-25.391,-24.414,-29.297,-17.090,178.223
1675199177.487,-26.367,-29.785,-26.367,-19.531,-92.773
1675199177.502,-25.879,-28.809,-21.973,-20.508,-113.770
1675199177.506,-34.180,-25.879,-22.461,-30.762,-86.426
1675199177.510,-20.996,-23.438,-30.273,-23.438,-127.441
1675199177.514,-4.395,-26.855,-30.273,-14.648,-118.164
1675199177.518,-4.395,-37.598,-26.855,-20.508,-83.008
1675199177.522,-16.602,-34.180,-21.973,-19.531,223.633
1675199177.526,-34.180,-22.461,-17.090,-34.180,105.469
1675199177.529,-34.668,-25.879,-26.367,-38.086,-239.746
1675199177.533,-16.113,-27.832,-31.250,-18.066,-127.441
1675199177.537,-14.648,-27.344,-30.273,-13.672,52.246
1675199177.541,-35.156,-31.250,-27.344,-28.809,-125.000
1675199177.545,-43.945,-34.180,-23.438,-35.156,-198.242
1675199177.548,-31.738,-35.645,-22.461,-25.879,-130.371
1675199177.552,-8.789,-32.227,-22.949,-12.207,-89.355
1675199177.556,-5.859,-32.227,-24.902,-12.207,9.277
1675199177.560,-20.996,-39.062,-26.367,-18.555,-19.531
1675199177.564,-30.762,-24.414,-25.391,-18.066,13.184
1675199177.568,-31.250,-13.672,-29.785,-18.555,-11.719
1675199177.572,-16.113,-17.090,-31.738,-22.949,-87.891
1675199177.575,-8.789,-21.973,-34.180,-19.043,-58.594
1675199177.579,-16.602,-26.367,-39.062,-13.184,151.367
1675199177.583,-32.715,-24.414,-35.156,-22.461,35.156
1675199177.587,-31.738,-29.785,-32.715,-29.297,-227.539
1675199177.591,-8.789,-46.387,-37.598,-17.578,-91.797
1675199177.592,2.441,-47.363,-33.691,-10.254,32.227
1675199177.596,-11.230,-32.715,-30.762,-17.090,-58.105
1675199177.600,-32.227,-30.273,-36.133,-41.016,-149.902
1675199177.604,-38.086,-26.855,-32.715,-41.992,-47.363
1675199177.608,-23.926,-19.043,-31.738,-23.926,116.699
1675199177.612,-17.090,-24.902,-34.668,-20.020,60.059
1675199177.616,-31.250,-34.180,-39.551,-26.855,-6.836
1675199177.619,-43.457,-32.715,-34.668,-33.691,42.969
1675199177.623,-40.039,-29.297,-25.879,-32.715,301.270
1675199177.627,-24.414,-32.715,-27.344,-27.832,121.582
1675199177.631,-14.160,-30.273,-29.297,-16.602,-124.023
1675199177.635,-15.137,-27.344,-24.902,-7.812,-51.758
1675199177.639,-31.250,-38.086,-25.879,-13.184,-152.832
1675199177.643,-39.551,-36.133,-25.879,-31.250,-280.273
1675199177.647,-25.879,-28.320,-26.855,-26.367,-209.473
1675199177.651,-18.066,-24.902,-29.297,-9.766,-57.129
1675199177.655,-31.250,-20.996,-31.738,-14.648,-49.316
1675199177.659,-41.504,-22.949,-28.809,-27.344,-83.496
1675199177.663,-42.480,-22.949,-19.043,-34.668,-95.215
1675199177.666,-21.484,-22.949,-10.742,-19.531,135.254
1675199177.670,0.488,-28.809,-19.531,-4.883,153.320
1675199177.674,-23.926,-36.133,-31.250,-27.832,-150.391
1675199177.678,-55.664,-33.203,-28.320,-53.223,-126.465
1675199177.682,-47.363,-23.926,-29.297,-49.316,15.137
1675199177.682,-37.598,-23.926,-32.715,-41.992,-119.141
1675199177.686,-25.391,-27.344,-31.738,-30.273,-188.477
1675199177.690,-14.648,-23.926,-32.227,-11.719,-78.125
1675199177.694,-32.715,-20.508,-30.273,-21.973,71.777
1675199177.698,-51.758,-23.438,-39.062,-43.945,-66.406
1675199177.702,-41.504,-31.250,-39.551,-37.598,-131.836
1675199177.706,-26.855,-39.062,-41.504,-22.949,128.418
1675199177.709,-18.066,-40.527,-41.504,-11.719,432.129
1675199177.713,-32.715,-40.039,-37.598,-27.344,146.973
1675199177.717,-52.734,-21.973,-35.645,-43.945,-175.293
1675199177.721,-48.340,-18.555,-35.156,-37.109,-113.770
1675199177.725,-23.438,-31.250,-39.551,-22.949,-15.625
1675199177.731,-10.254,-31.250,-35.156,-7.812,43.457
1675199177.735,-24.414,-21.484,-32.715,-11.719,-93.750
1675199177.739,-36.621,-19.043,-30.273,-21.973,-56.641
1675199177.743,-28.809,-32.227,-25.879,-19.043,-84.961
1675199177.747,-12.207,-31.738,-24.902,-14.648,-202.148
1675199177.751,-8.301,-26.855,-27.344,-17.578,-38.086
1675199177.755,-26.367,-35.645,-25.391,-17.578,206.055
1675199177.758,-46.875,-33.203,-30.762,-31.738,93.750
1675199177.762,-43.457,-28.809,-37.109,-48.828,-187.012
1675199177.766,-27.344,-31.250,-23.926,-36.621,-165.039
1675199177.770,-16.602,-28.809,-23.926,-24.902,-76.172
1675199177.774,-29.297,-32.715,-29.297,-29.785,-123.047
1675199177.772,-52.734,-35.156,-26.367,-41.016,-172.363
1675199177.776,-46.875,-31.250,-30.762,-45.410,-166.016
1675199177.780,-24.414,-31.738,-39.062,-36.133,-47.363
1675199177.784,-9.277,-38.574,-36.621,-21.973,86.426
1675199177.788,-11.719,-37.598,-26.855,-16.113,50.293
1675199177.792,-33.203,-20.996,-22.949,-27.832,-48.340
1675199177.796,-35.645,-19.043,-22.949,-30.273,302.734
1675199177.799,-20.020,-27.832,-27.832,-25.391,412.109
1675199177.803,-16.113,-32.227,-41.016,-27.832,-28.809
1675199177.807,-15.625,-36.133,-34.180,-29.785,-122.070
1675199177.811,-29.785,-31.738,-26.855,-37.598,-124.023
1675199177.815,-39.551,-25.879,-31.250,-46.875,-187.012
1675199177.834,-18.555,-31.738,-23.438,-31.738,-159.668
1675199177.838,-2.930,-28.809,-29.785,-13.672,-81.543
1675199177.842,-20.020,-25.391,-43.945,-27.832,-93.262
1675199177.846,-41.504,-33.203,-32.715,-41.016,-177.734
1675199177.850,-39.062,-30.762,-25.391,-34.668,-195.312
1675199177.854,-24.902,-29.297,-24.902,-16.113,-19.043
1675199177.858,-15.137,-29.297,-26.367,-0.977,110.840
1675199177.861,-17.090,-27.832,-23.438,-0.977,59.082
1675199177.865,-30.273,-31.738,-17.578,-6.836,-64.941
1675199177.869,-39.551,-34.180,-13.672,-5.859,82.520
1675199177.873,-42.480,-29.297,-22.461,-5.859,72.266
1675199177.877,-27.832,-25.879,-31.738,0.488,-190.430
1675199177.877,-15.137,-19.531,-26.855,4.883,-139.648
1675199177.881,-27.344,-14.648,-28.320,-12.695,-80.078
1675199177.885,-32.227,-17.578,-34.668,-20.020,-131.836
1675199177.889,-22.949,-20.020,-28.320,-9.766,-113.281
1675199177.893,-10.742,-22.949,-22.949,-6.836,-73.730
1675199177.897,-0.488,-21.973,-27.344,2.441,79.102
1675199177.901,-13.184,-28.809,-21.973,10.742,67.383
1675199177.904,-35.156,-32.715,-23.926,-10.742,-203.613
1675199177.908,-28.809,-21.973,-32.715,-20.508,-140.625
1675199177.912,-10.254,-17.090,-27.344,1.465,349.121
1675199177.916,-4.883,-24.902,-25.879,-3.906,336.426
1675199177.920,-13.184,-27.344,-31.250,-20.996,-68.848
1675199177.922,-16.602,-27.832,-23.926,-14.160,-115.723
1675199177.926,-19.531,-23.926,-23.438,-19.531,-149.414
1675199177.930,-21.484,-18.066,-30.273,-31.250,-214.355
1675199177.934,-15.625,-23.926,-28.809,-24.414,-132.812
1675199177.938,-12.695,-21.973,-28.809,-12.207,-26.855
1675199177.942,-36.133,-17.090,-30.762,-37.598,-41.992
1675199177.946,-44.922,-17.090,-32.227,-45.410,-115.723
1675199177.949,-29.297,-13.184,-30.273,-24.902,-115.723
1675199177.953,-24.414,-20.508,-20.996,-11.719,169.922
1675199177.957,-34.668,-18.066,-28.809,-20.020,167.969
1675199177.961,-50.293,-19.043,-34.180,-43.945,-145.996
1675199177.965,-50.293,-25.391,-26.855,-44.922,-208.008
1675199177.968,-25.391,-20.508,-18.555,-26.367,-82.031
1675199177.972,-4.883,-18.555,-19.043,-10.254,-13.672
1675199177.976,-21.484,-13.672,-20.020,-19.043,-90.332
1675199177.980,-41.504,-10.254,-20.020,-29.297,-29.297
1675199177.984,-35.156,-13.672,-22.949,-19.043,186.523
1675199177.988,-29.297,-14.160,-30.762,-19.043,50.293
1675199177.992,-15.625,-23.438,-37.109,-13.184,-122.070
1675199177.995,-3.906,-32.227,-32.227,-5.371,1.953
1675199177.999,-18.066,-16.113,-30.273,-15.137,204.102
1675199178.003,-41.016,-7.324,-33.203,-37.598,-68.359
1675199178.007,-31.738,-18.066,-32.715,-38.086,-219.238
1675199178.011,-12.207,-18.555,-32.715,-18.555,-64.453
1675199178.014,-17.090,-17.090,-26.367,-16.602,-53.711
1675199178.018,-35.156,-20.020,-20.996,-27.832,-181.641
1675199178.022,-48.828,-17.090,-20.996,-38.574,-209.473
1675199178.026,-38.086,-17.090,-22.949,-34.668,-147.461
1675199178.030,-18.066,-27.344,-25.879,-14.648,-125.000
1675199178.034,-17.578,-39.062,-26.367,-8.789,-47.363
1675199178.038,-30.762,-33.691,-27.832,-26.367,-48.828
1675199178.041,-36.621,-20.020,-29.785,-26.367,124.023
1675199178.045,-31.250,-16.113,-36.621,-23.438,216.797
1675199178.049,-23.438,-24.414,-49.316,-27.344,-62.500
1675199178.053,-10.254,-31.250,-46.875,-18.066,-84.473
1675199178.057,-22.461,-35.645,-38.086,-25.879,-52.246
1675199178.057,-44.922,-28.809,-32.227,-42.480,-112.305
1675199178.061,-43.457,-19.043,-32.715,-36.133,-168.457
1675199178.065,-29.785,-21.484,-40.527,-21.484,-109.863
1675199178.069,-23.438,-27.344,-41.992,-14.160,47.852
1675199178.073,-31.738,-24.902,-39.551,-19.531,-29.297
1675199178.077,-43.457,-26.367,-33.691,-30.762,-113.770
1675199178.081,-37.598,-25.879,-31.250,-28.320,-10.254
1675199178.084,-16.602,-29.785,-28.320,-6.348,363.281
1675199178.088,-17.090,-35.156,-34.180,-5.371,312.988
1675199178.092,-32.227,-33.691,-44.434,-24.902,-57.617
1675199178.096,-38.574,-33.691,-44.434,-25.391,-126.953
1675199178.100,-40.039,-38.574,-40.527,-34.180,-118.164
1675199178.112,-28.320,-38.574,-33.203,-31.738,-170.410
1675199178.116,-11.719,-25.391,-32.227,-13.672,-102.539
1675199178.120,-16.113,-20.508,-33.203,-20.020,62.500
1675199178.124,-38.086,-24.902,-34.180,-36.621,-45.410
1675199178.128,-44.434,-23.438,-29.785,-34.668,-218.750
1675199178.132,-27.344,-30.273,-27.832,-30.762,-112.305
1675199178.136,-10.742,-35.156,-29.297,-20.020,295.898
1675199178.139,-21.973,-34.668,-35.156,-25.391,244.141
1675199178.143,-36.133,-25.391,-37.109,-42.480,-163.086
1675199178.147,-27.832,-16.602,-31.250,-38.574,-185.059
1675199178.151,-19.531,-26.855,-31.250,-29.785,-83.008
1675199178.155,-14.160,-39.062,-34.668,-21.973,-69.824
1675199178.148,-11.719,-42.969,-31.250,-20.508,-90.820
1675199178.152,-24.902,-35.645,-18.555,-30.273,-57.617
1675199178.156,-37.109,-33.691,-13.184,-28.320,112.305
1675199178.160,-28.320,-32.227,-13.672,-18.555,110.352
1675199178.164,-17.090,-25.391,-22.461,-18.555,-60.059
1675199178.168,-15.137,-26.367,-27.832,-14.160,79.590
1675199178.172,-23.438,-19.531,-26.367,-8.301,432.129
1675199178.175,-25.879,-20.996,-29.297,-14.160,194.336
1675199178.179,-25.391,-41.016,-30.273,-21.484,-212.891
1675199178.183,-29.297,-42.480,-27.344,-18.555,-134.766
1675199178.187,-21.484,-31.250,-26.855,-8.301,-115.723
1675199178.191,-27.832,-25.879,-27.344,-17.090,-199.707
1675199178.194,-38.574,-18.066,-34.180,-34.180,-257.812
1675199178.198,-22.949,-20.508,-36.133,-30.762,-179.688
1675199178.202,-4.395,-36.621,-28.320,-13.184,-35.156
1675199178.206,-12.207,-41.992,-29.297,-10.254,-35.156
1675199178.210,-36.621,-28.320,-33.691,-28.320,-71.777
1675199178.214,-42.480,-24.414,-33.203,-35.645,154.297
1675199178.218,-33.203,-36.621,-32.715,-28.809,259.766
1675199178.221,-17.578,-30.273,-33.691,-20.996,-20.996
1675199178.225,-10.742,-31.738,-33.691,-14.648,-79.590
1675199178.229,-17.578,-32.227,-26.367,-17.090,86.914
1675199178.233,-32.715,-35.645,-27.832,-32.715,-135.254
1675199178.237,-37.109,-37.598,-35.645,-42.480,-346.191
1675199178.252,-20.508,-31.738,-31.250,-25.879,-252.930
1675199178.256,-13.672,-35.156,-28.320,-14.648,-118.652
1675199178.260,-26.855,-31.250,-31.250,-21.973,-84.961
1675199178.264,-39.551,-24.902,-32.715,-31.250,-144.043
1675199178.268,-46.875,-34.180,-33.691,-36.133,-95.703
1675199178.272,-31.738,-32.715,-31.250,-20.020,302.246
1675199178.276,-23.926,-35.645,-32.715,-15.625,233.887
1675199178.279,-32.227,-47.363,-25.879,-25.879,-74.707
1675199178.283,-39.551,-40.527,-17.090,-29.297,-100.586
1675199178.287,-42.480,-32.227,-18.555,-28.809,52.734
1675199178.291,-31.250,-33.203,-23.926,-24.902,-145.996
1675199178.295,-16.602,-33.691,-28.809,-14.160,-222.168
1675199178.297,-26.367,-39.062,-26.855,-18.066,-31.250
1675199178.301,-47.363,-40.527,-26.367,-32.227,-91.797
1675199178.305,-51.270,-20.508,-30.762,-39.551,-186.035
1675199178.309,-34.668,-11.719,-31.250,-26.367,-150.879
1675199178.313,-14.160,-20.996,-28.809,-5.371,-40.039
1675199178.317,-15.137,-27.832,-32.715,-10.254,61.523
1675199178.321,-34.180,-27.832,-30.762,-24.902,17.090
1675199178.324,-42.480,-27.832,-27.344,-31.250,-108.398
1675199178.328,-30.762,-22.461,-32.715,-24.414,137.695
1675199178.332,-18.555,-26.855,-40.527,-19.531,322.266
1675199178.336,-20.508,-31.738,-38.574,-25.391,19.043
1675199178.340,-29.785,-23.926,-20.996,-20.996,-84.961
1675199178.342,-41.504,-20.508,-12.695,-25.391,-100.098
1675199178.346,-34.668,-26.855,-21.484,-29.785,-151.367
1675199178.350,-18.066,-35.156,-29.297,-13.184,-119.629
1675199178.354,-13.672,-28.809,-26.367,-8.301,22.461
1675199178.358,-28.809,-18.066,-22.461,-21.973,105.469
1675199178.362,-38.086,-33.203,-26.855,-32.227,25.879
1675199178.366,-25.879,-37.598,-31.250,-28.320,-79.590
1675199178.369,-12.207,-27.832,-28.320,-15.137,-37.109
1675199178.373,-5.859,-28.320,-27.832,-2.930,229.492
1675199178.377,-25.391,-35.645,-41.992,-21.484,24.414
1675199178.381,-33.203,-35.645,-38.574,-33.203,-249.512
1675199178.385,-16.113,-31.250,-25.879,-20.996,-221.191
1675199178.391,-5.859,-25.391,-25.391,-17.090,-116.699
1675199178.395,-5.859,-25.391,-35.645,-15.137,-120.605
1675199178.399,-16.113,-23.926,-38.574,-20.996,-131.836
1675199178.403,-25.391,-18.555,-27.832,-27.832,-13.672
1675199178.407,-26.367,-39.551,-24.414,-20.508,-45.410
1675199178.411,-12.207,-41.016,-29.785,-7.324,-72.754
1675199178.415,-5.859,-20.996,-30.762,-6.348,61.035
1675199178.418,-19.043,-22.949,-27.344,-11.230,228.516
1675199178.422,-36.621,-19.043,-31.250,-27.344,71.777
1675199178.426,-33.691,-17.090,-30.273,-37.598,-221.191
1675199178.430,-15.625,-29.297,-24.414,-25.879,-192.383
1675199178.434,1.953,-24.902,-25.391,-9.766,131.836
1675199178.433,-7.324,-26.367,-26.367,-19.531,54.688
1675199178.437,-31.250,-31.738,-26.855,-33.203,-196.289
1675199178.441,-34.668,-33.203,-23.926,-35.156,-188.965
1675199178.445,-21.484,-32.227,-26.855,-29.785,-37.109
1675199178.449,-12.207,-37.109,-31.738,-22.949,7.812
1675199178.453,-22.461,-33.203,-29.297,-31.738,-59.570
1675199178.457,-42.969,-26.855,-31.738,-44.922,-82.520
1675199178.460,-46.387,-29.785,-33.203,-41.504,222.168
1675199178.464,-26.855,-38.086,-37.598,-41.992,277.832
1675199178.468,-16.113,-50.293,-40.039,-36.133,-83.008
1675199178.472,-16.602,-39.062,-34.180,-26.855,-96.191
1675199178.476,-25.879,-38.086,-29.785,-39.062,-112.793
1675199178.480,-38.574,-42.969,-32.227,-46.875,-236.328
1675199178.484,-28.809,-28.320,-31.250,-36.133,-190.918
1675199178.488,-12.207,-28.809,-33.691,-20.996,-53.223
1675199178.492,-14.648,-34.668,-37.109,-22.461,-37.598
1675199178.496,-37.109,-32.715,-34.180,-38.086,-139.160
1675199178.500,-49.805,-28.320,-27.344,-45.898,-86.914
1675199178.504,-33.203,-23.926,-25.879,-31.738,270.020
1675199178.507,-16.602,-34.180,-33.691,-22.949,290.039
1675199178.511,-12.695,-47.852,-30.273,-27.832,-79.102
1675199178.515,-37.598,-37.109,-18.066,-37.109,-126.465
1675199178.519,-58.594,-24.414,-21.973,-52.734,-13.184
1675199178.523,-48.828,-26.855,-28.320,-51.758,-128.906
1675199178.522,-32.715,-31.738,-29.297,-35.156,-109.863
1675199178.526,-22.461,-27.832,-33.203,-19.531,-68.848
1675199178.530,-27.832,-24.902,-36.621,-19.531,-97.656
1675199178.534,-44.922,-30.762,-33.203,-31.738,-83.496
1675199178.538,-36.133,-33.203,-30.762,-27.344,-184.570
1675199178.542,-17.578,-29.785,-36.621,-12.695,-45.410
1675199178.546,-2.930,-30.273,-28.809,0.000,435.547
1675199178.549,-15.625,-29.297,-26.367,-12.207,274.902
1675199178.553,-36.133,-21.973,-33.691,-35.156,-152.832
1675199178.557,-35.156,-26.855,-31.738,-38.086,-191.406
1675199178.561,-29.297,-33.691,-30.762,-31.738,-76.172
1675199178.565,-17.578,-30.273,-28.809,-23.926,-39.062
1675199178.571,-14.648,-30.273,-20.508,-21.484,-142.090
1675199178.575,-32.227,-34.180,-12.695,-28.320,-115.234
1675199178.579,-42.969,-32.715,-17.578,-38.574,-97.656
1675199178.583,-24.414,-33.691,-30.273,-32.715,-178.223
1675199178.587,-0.977,-38.574,-34.180,-16.113,-44.434
1675199178.591,-11.230,-35.156,-29.785,-19.043,163.574
1675199178.595,-32.227,-25.391,-31.250,-30.762,44.434
1675199178.598,-33.203,-19.531,-27.344,-34.668,-189.453
1675199178.602,-22.461,-23.926,-25.879,-27.832,-191.895
1675199178.606,-2.441,-27.832,-27.832,-5.859,128.418
1675199178.610,-10.254,-26.367,-27.344,-14.160,95.703
1675199178.614,-33.691,-40.039,-30.762,-33.691,-145.996
1675199178.629,-35.645,-38.086,-28.809,-34.180,-157.715
1675199178.633,-20.508,-25.391,-24.902,-27.344,-115.234
1675199178.637,0.000,-30.273,-33.203,-11.230,-21.973
1675199178.641,-8.789,-30.762,-35.645,-11.230,3.906
1675199178.645,-30.273,-22.949,-32.227,-24.902,1.953
1675199178.649,-27.344,-20.508,-23.926,-21.484,354.980
1675199178.653,-20.020,-21.484,-23.438,-14.160,304.688
1675199178.656,-11.719,-25.879,-36.133,-12.695,-61.523
1675199178.660,-7.812,-29.297,-34.668,-14.160,-32.227
1675199178.664,-25.391,-31.738,-26.367,-26.855,0.977
1675199178.668,-41.992,-30.273,-30.273,-40.039,-165.527
1675199178.672,-29.785,-36.621,-34.180,-31.738,-207.031
1675199178.673,-5.371,-38.574,-34.668,-18.066,-87.402
1675199178.677,-9.277,-25.879,-37.109,-12.695,-84.473
1675199178.681,-29.297,-18.066,-38.574,-26.855,-211.426
1675199178.685,-38.574,-15.137,-41.504,-41.016,-235.352
1675199178.689,-32.715,-22.461,-39.551,-31.250,-116.699
1675199178.693,-13.672,-30.273,-37.598,-19.043,-56.641
1675199178.697,-5.371,-29.785,-32.715,-7.324,-52.246
1675199178.700,-19.043,-34.180,-34.668,-13.184,-60.059
1675199178.704,-25.879,-20.020,-34.180,-14.160,141.602
1675199178.708,-20.020,-23.438,-23.926,-12.207,231.934
1675199178.712,-4.883,-39.551,-24.902,-16.602,-104.492
1675199178.716,4.395,-31.250,-25.391,-6.348,-144.043
1675199178.717,-8.301,-22.949,-22.461,-11.230,-11.719
1675199178.721,-27.832,-21.973,-25.879,-25.391,-154.785
1675199178.725,-25.391,-21.484,-19.043,-23.926,-232.422
1675199178.729,-12.207,-18.555,-19.043,-6.348,-22.461
1675199178.733,-7.812,-19.531,-31.738,-4.883,158.203
1675199178.737,-21.973,-23.438,-34.180,-15.625,62.500
1675199178.741,-46.875,-23.926,-26.367,-28.320,-111.328
1675199178.744,-42.969,-25.391,-26.367,-30.762,-101.562
1675199178.748,-19.043,-33.203,-28.809,-12.207,315.918
1675199178.752,-13.184,-31.250,-35.156,-11.230,197.266
1675199178.756,-18.066,-18.555,-30.762,-18.555,-131.836
1675199178.760,-38.086,-18.066,-25.391,-30.762,-104.492
1675199178.763,-43.457,-18.066,-24.902,-33.691,-91.797
1675199178.767,-20.508,-16.602,-24.902,-15.137,-119.629
1675199178.771,-5.371,-19.043,-27.832,-4.395,-60.059
1675199178.775,-15.625,-28.320,-32.715,-13.184,29.297
1675199178.779,-36.133,-28.809,-32.715,-30.762,-97.168
1675199178.783,-39.062,-20.996,-24.414,-40.527,-200.195
1675199178.787,-23.926,-18.555,-24.414,-37.109,-117.676
1675199178.790,-2.930,-15.625,-23.438,-18.555,210.938
1675199178.794,-14.160,-17.090,-25.391,-22.461,225.098
1675199178.798,-44.922,-17.578,-33.691,-51.270,-132.812
1675199178.802,-47.852,-26.367,-33.203,-57.129,-151.367
1675199178.806,-41.504,-25.391,-39.062,-48.828,17.090
1675199178.808,-31.738,-18.555,-42.480,-41.504,-13.184
1675199178.812,-27.832,-23.438,-28.809,-34.668,-149.902
1675199178.816,-39.062,-30.273,-17.578,-32.715,-105.469
1675199178.820,-41.504,-27.832,-15.137,-27.344,173.340
1675199178.824,-29.297,-20.996,-22.949,-23.926,2.930
1675199178.828,-14.648,-24.414,-25.391,-16.113,-145.996
1675199178.832,-10.254,-29.785,-24.902,-9.277,55.664
1675199178.835,-18.066,-28.809,-25.879,-7.812,273.926
1675199178.839,-33.203,-33.203,-27.832,-29.785,-9.277
1675199178.843,-28.809,-39.551,-35.156,-37.109,-191.406
1675199178.847,-12.695,-30.762,-38.086,-20.996,-37.109
1675199178.851,-10.742,-17.578,-36.621,-20.508,-28.809
1675199178.854,-24.414,-12.207,-32.715,-28.809,-51.270
1675199178.858,-40.527,-14.648,-28.320,-39.551,-146.973
1675199178.862,-28.320,-22.949,-18.066,-35.645,-102.539
1675199178.866,-3.418,-28.809,-20.020,-13.672,-80.566
1675199178.870,14.160,-34.180,-20.020,12.207,-118.652
1675199178.874,-1.953,-33.203,-23.438,0.000,-31.250
1675199178.878,-30.273,-16.602,-29.297,-27.344,201.660
1675199178.881,-30.762,-6.348,-32.715,-32.227,295.410
1675199178.885,-8.301,-16.113,-38.574,-27.344,-66.406
1675199178.889,8.301,-17.090,-39.551,-11.719,-106.445
1675199178.893,-8.789,-12.695,-38.574,-12.207,-29.785
1675199178.897,-35.645,-12.207,-33.203,-33.691,-139.160
1675199178.897,-44.922,-15.137,-34.668,-41.992,-182.617
1675199178.901,-27.344,-15.625,-38.086,-28.320,-145.020
1675199178.905,-17.578,-19.043,-34.180,-17.090,-24.902
1675199178.909,-31.250,-28.320,-32.227,-29.297,3.906
1675199178.913,-45.898,-25.879,-35.156,-49.805,-126.465
1675199178.917,-37.109,-21.973,-33.203,-48.340,-89.844
1675199178.921,-13.672,-23.926,-23.926,-21.973,319.336
1675199178.924,-6.836,-26.855,-24.414,-19.043,284.668
1675199178.928,-17.090,-27.832,-29.297,-28.809,-104.980
1675199178.932,-27.832,-30.762,-25.879,-24.414,-125.977
1675199178.936,-32.715,-29.297,-26.855,-20.508,112.793
1675199178.940,-29.785,-29.785,-39.551,-27.344,-91.309
1675199178.944,-11.719,-28.809,-40.527,-15.625,-211.426
1675199178.948,-10.742,-23.438,-36.621,-6.348,-80.078
1675199178.952,-36.621,-19.531,-35.645,-22.461,-135.254
1675199178.956,-40.039,-15.625,-33.203,-31.738,-268.066
1675199178.960,-18.066,-18.555,-37.109,-18.555,-192.871
1675199178.964,-10.254,-22.461,-35.645,-12.695,74.707
1675199178.968,-3.418,-28.320,-30.762,-17.090,140.625
1675199178.971,-11.230,-39.551,-27.344,-14.160,-54.199
1675199178.975,-23.926,-24.902,-25.879,-23.926,-177.246
1675199178.979,-13.184,-11.230,-32.227,-14.648,178.223
1675199178.983,-11.230,-16.113,-39.551,-5.859,228.516
1675199178.987,-19.531,-23.926,-37.109,-14.648,-105.469
1675199179.002,-30.273,-22.949,-34.668,-15.625,-184.082
1675199179.006,-44.434,-20.020,-38.574,-25.391,-211.426
1675199179.010,-44.434,-21.973,-36.133,-25.391,-194.336
1675199179.014,-31.250,-26.855,-34.180,-16.602,-186.523
1675199179.018,-28.809,-36.133,-38.574,-20.996,-65.430
1675199179.022,-39.062,-26.855,-34.180,-26.367,291.992
1675199179.026,-55.176,-27.344,-40.527,-44.922,159.180
1675199179.029,-53.711,-43.945,-47.363,-49.316,-175.781
1675199179.033,-24.414,-37.109,-40.039,-27.344,-83.984
1675199179.037,-14.160,-25.391,-42.480,-20.020,68.359
1675199179.041,-29.785,-24.902,-46.875,-29.297,-98.145
1675199179.045,-38.086,-21.973,-45.898,-38.086,-212.402
1675199179.051,-37.109,-26.855,-42.480,-34.180,-132.324
1675199179.055,-24.414,-39.551,-38.574,-23.926,-105.957
1675199179.059,-16.113,-34.180,-36.133,-21.973,-150.879
1675199179.063,-33.691,-36.133,-34.668,-31.738,-145.020
1675199179.067,-47.363,-30.273,-32.227,-38.574,16.113
1675199179.071,-49.316,-29.297,-37.598,-41.016,46.387
1675199179.075,-38.574,-37.598,-48.828,-38.574,-46.875
1675199179.078,-29.785,-43.457,-49.805,-29.785,6.348
1675199179.082,-36.133,-42.480,-39.551,-22.461,207.520
1675199179.086,-52.734,-35.156,-41.992,-32.715,142.090
1675199179.090,-57.617,-37.598,-40.039,-44.922,-163.086
1675199179.094,-41.504,-45.898,-39.062,-41.992,-71.777
1675199179.092,-24.902,-43.945,-40.527,-27.832,198.730
1675199179.096,-28.320,-41.504,-39.062,-27.832,16.113
1675199179.100,-43.457,-40.039,-37.598,-37.109,-104.492
1675199179.104,-48.340,-33.691,-30.762,-36.133,67.383
1675199179.108,-35.645,-32.227,-30.762,-36.133,75.195
1675199179.112,-26.367,-34.668,-29.785,-31.250,-40.527
1675199179.116,-29.785,-30.273,-25.391,-23.926,-109.375
1675199179.119,-42.969,-25.879,-25.879,-29.297,-106.934
1675199179.123,-46.387,-38.574,-18.555,-20.508,237.793
1675199179.127,-37.598,-46.387,-22.461,-14.648,278.320
1675199179.131,-31.250,-42.480,-32.715,-18.555,-126.465
1675199179.135,-21.484,-37.598,-29.785,-13.672,-135.742
1675199179.138,-32.227,-28.320,-25.879,-26.367,-83.984
1675199179.142,-43.457,-26.367,-22.461,-40.039,-230.957
1675199179.146,-26.367,-31.250,-23.926,-27.832,-290.527
1675199179.150,-8.301,-22.461,-26.367,-6.836,-141.113
1675199179.154,-0.488,-17.090,-24.902,-0.977,-73.730
1675199179.158,-10.254,-20.996,-23.438,-13.672,-78.125
1675199179.162,-37.598,-26.367,-20.020,-31.738,-44.434
1675199179.165,-29.297,-25.879,-21.973,-23.438,208.496
1675199179.169,-3.906,-26.367,-33.203,0.488,352.539
1675199179.173,-23.926,-33.691,-43.945,-18.066,-33.203
1675199179.177,-51.758,-26.367,-34.668,-48.340,-179.688
1675199179.181,-64.941,-20.996,-32.227,-62.012,-86.914
1675199179.182,-67.871,-24.414,-40.527,-68.359,-134.766
1675199179.186,-40.527,-32.715,-38.086,-43.945,-161.133
1675199179.190,-25.879,-38.574,-32.227,-25.879,-114.258
1675199179.194,-43.945,-37.598,-29.297,-37.109,-17.090
1675199179.198,-51.758,-33.691,-33.203,-50.781,-62.012
1675199179.202,-45.410,-30.762,-36.133,-37.109,-118.652
1675199179.206,-36.621,-36.621,-36.621,-22.949,28.320
1675199179.209,-28.320,-38.086,-36.621,-16.602,323.242
1675199179.213,-32.715,-30.273,-36.133,-30.273,78.125
1675199179.217,-46.875,-20.508,-35.645,-52.246,-255.371
1675199179.221,-55.176,-18.555,-36.621,-56.152,-108.887
1675199179.225,-33.691,-16.602,-33.203,-41.504,-32.715
1675199179.231,-23.926,-24.902,-30.273,-26.367,-164.551
1675199179.235,-31.738,-30.762,-31.250,-25.391,-126.953
1675199179.239,-37.109,-29.297,-22.461,-34.180,15.137
1675199179.243,-42.969,-34.668,-25.879,-41.016,-89.355
1675199179.247,-36.621,-35.156,-32.715,-35.645,-133.789
1675199179.251,-25.391,-36.133,-30.762,-31.250,-44.922
1675199179.255,-21.973,-40.039,-26.367,-26.367,229.492
1675199179.258,-41.016,-34.668,-30.273,-33.691,219.238
1675199179.262,-51.758,-33.203,-33.691,-41.016,-166.992
1675199179.266,-39.551,-32.227,-27.344,-30.273,-201.172
1675199179.270,-25.879,-30.273,-24.902,-15.625,-91.797
1675199179.274,-35.645,-32.715,-27.344,-17.578,-60.059
1675199179.272,-50.781,-27.344,-27.344,-33.203,-62.988
1675199179.276,-42.480,-22.949,-24.902,-35.645,-68.359
1675199179.280,-30.273,-28.320,-25.879,-30.273,-7.324
1675199179.284,-15.625,-34.180,-28.809,-18.555,-26.367
1675199179.288,-14.160,-33.203,-34.180,-9.766,-96.191
1675199179.292,-20.020,-33.203,-27.832,-20.508,-56.152
1675199179.296,-10.742,-27.344,-16.602,-15.625,325.195
1675199179.299,-8.789,-23.438,-25.879,-9.766,344.727
1675199179.303,-12.695,-29.785,-42.969,-22.461,-83.496
1675199179.307,-3.418,-21.484,-34.180,-14.648,-145.996
1675199179.311,-13.184,-17.578,-22.461,-13.672,-125.977
1675199179.315,-34.668,-24.902,-22.949,-25.879,-194.824
1675199179.319,-28.809,-20.996,-26.367,-21.484,-164.062
1675199179.323,-13.672,-23.438,-32.715,-7.812,-65.918
1675199179.327,-8.789,-30.273,-33.691,-4.883,-16.113
1675199179.331,-21.484,-31.250,-33.203,-17.578,-43.945
1675199179.335,-39.551,-44.434,-28.809,-25.879,-116.211
1675199179.339,-29.785,-29.297,-21.484,-10.254,25.391
1675199179.343,-13.184,-10.742,-16.602,3.906,107.910
1675199179.346,-14.648,-20.996,-17.578,1.953,-1.953
1675199179.350,-17.578,-25.391,-22.949,-10.254,-83.984
1675199179.354,-26.367,-23.926,-22.461,-13.672,101.562
1675199179.358,-29.785,-29.297,-28.809,-19.531,62.012
1675199179.362,-18.066,-33.203,-30.273,-22.461,-207.031
1675199179.393,-7.324,-29.785,-24.414,-12.695,-147.949
1675199179.397,-14.648,-28.809,-21.973,-13.184,-49.316
1675199179.401,-24.902,-21.484,-22.461,-17.090,-70.312
1675199179.405,-26.367,-20.020,-29.297,-14.648,-132.812
1675199179.409,-4.883,-20.020,-26.855,-0.488,-138.672
1675199179.413,6.836,-32.715,-21.973,15.625,215.332
1675199179.417,-9.766,-41.016,-26.855,-1.953,164.551
1675199179.420,-34.180,-32.227,-33.691,-34.180,-185.059
1675199179.424,-41.504,-28.809,-30.273,-39.062,-71.289
1675199179.428,-13.184,-24.414,-24.414,-21.484,203.125
1675199179.432,5.371,-21.484,-26.855,-16.602,-57.129
1675199179.436,-15.137,-21.973,-33.691,-21.484,-185.547
1675199179.422,-24.414,-22.461,-30.273,-20.996,-53.223
1675199179.426,-30.273,-21.484,-23.926,-31.250,-114.258
1675199179.430,-33.203,-42.969,-29.785,-33.691,-150.391
1675199179.434,-19.531,-52.734,-34.180,-27.344,-105.469
1675199179.438,-19.531,-28.320,-29.785,-22.949,-59.570
1675199179.442,-32.715,-17.578,-26.855,-20.508,-36.621
1675199179.446,-48.340,-24.414,-30.273,-34.668,-85.938
1675199179.449,-32.715,-26.855,-28.809,-30.273,-126.953
1675199179.453,-6.836,-20.020,-26.367,-11.719,8.301
1675199179.457,-9.766,-22.461,-36.133,-14.160,-33.691
1675199179.461,-25.391,-26.855,-39.062,-23.926,-152.344
1675199179.465,-16.602,-20.020,-33.203,-13.672,-191.406
1675199179.468,9.277,-22.461,-24.902,12.695,236.328
1675199179.472,-8.301,-33.691,-19.043,-7.812,304.199
1675199179.476,-24.902,-28.809,-24.414,-26.367,-95.703
1675199179.480,-30.273,-20.996,-12.207,-20.020,-75.684
1675199179.484,-53.711,-25.391,-7.324,-36.133,70.801
1675199179.488,-49.805,-33.203,-26.855,-40.527,-83.008
1675199179.492,-32.227,-40.527,-33.691,-29.785,-171.387
1675199179.495,-24.902,-40.039,-28.320,-23.438,6.836
1675199179.499,-38.574,-41.504,-25.391,-29.785,264.160
1675199179.503,-56.641,-41.016,-32.715,-48.828,-37.598
1675199179.507,-53.223,-35.156,-38.574,-46.875,-274.414
1675199179.511,-30.762,-40.527,-34.180,-31.250,-86.914
1675199179.514,-10.742,-40.039,-33.691,-20.996,-66.895
1675199179.518,-22.949,-34.180,-33.203,-21.973,-153.320
1675199179.522,-41.504,-31.738,-27.344,-28.809,-151.855
1675199179.526,-38.574,-25.879,-23.926,-28.320,-58.594
1675199179.530,-20.020,-23.926,-27.832,-17.090,-90.820
1675199179.534,-8.789,-29.785,-26.855,-15.137,-17.090
1675199179.538,-32.715,-32.715,-28.809,-32.227,63.477
1675199179.541,-48.340,-24.902,-29.785,-39.551,150.879
1675199179.545,-40.527,-26.855,-32.227,-38.574,158.691
1675199179.549,-29.297,-41.504,-36.133,-35.645,-105.957
1675199179.553,-21.484,-36.133,-32.715,-21.484,-68.359
1675199179.557,-32.227,-27.344,-39.551,-25.391,-6.348
1675199179.557,-48.340,-31.250,-43.457,-38.574,-82.031
1675199179.561,-45.410,-29.785,-36.621,-43.945,-124.023
1675199179.565,-27.344,-26.855,-32.715,-41.016,-91.797
1675199179.569,-16.113,-27.832,-33.691,-31.250,-3.906
1675199179.573,-25.879,-36.621,-36.621,-35.156,-35.156
1675199179.577,-40.039,-36.621,-27.344,-41.016,-124.512
1675199179.581,-39.551,-36.621,-24.902,-39.551,-93.262
1675199179.584,-25.879,-42.969,-23.438,-18.066,389.160
1675199179.588,-20.996,-29.785,-27.832,-10.742,330.566
1675199179.592,-34.668,-25.879,-35.645,-27.344,-173.828
1675199179.596,-43.457,-32.715,-38.086,-35.156,-167.480
1675199179.600,-50.293,-33.691,-37.598,-47.363,-126.465
1675199179.604,-38.086,-34.180,-29.297,-38.574,-194.336
1675199179.608,-13.672,-29.297,-31.738,-20.996,-172.852
1675199179.612,-20.020,-22.949,-36.621,-25.879,-18.555
1675199179.616,-39.551,-37.109,-31.738,-39.062,-40.039
1675199179.620,-41.504,-40.527,-24.414,-44.922,-207.031
1675199179.624,-29.297,-31.738,-23.926,-37.109,-94.727
1675199179.628,-12.207,-32.227,-31.250,-15.625,226.074
1675199179.631,-17.578,-30.273,-33.203,-16.602,196.289
1675199179.635,-34.668,-31.250,-36.621,-38.086,-145.508
1675199179.639,-38.574,-38.086,-39.062,-41.504,-162.598
1675199179.643,-27.832,-44.434,-38.086,-37.109,33.203
1675199179.647,-15.137,-42.969,-34.668,-25.879,-38.574
1675199179.648,-11.230,-41.992,-28.320,-8.789,-104.980
1675199179.652,-29.297,-45.410,-29.297,-14.648,-98.145
1675199179.656,-41.992,-38.574,-24.902,-30.762,-83.984
1675199179.660,-35.156,-30.762,-19.531,-30.762,-52.246
1675199179.664,-26.855,-35.645,-22.949,-26.367,-62.012
1675199179.668,-16.602,-36.133,-20.996,-10.742,62.500
1675199179.672,-18.066,-31.250,-13.184,3.906,398.438
1675199179.675,-35.645,-28.320,-20.020,-11.230,229.004
1675199179.679,-35.156,-32.715,-28.320,-23.438,-169.922
1675199179.683,-12.207,-32.715,-28.809,-8.789,-158.203
1675199179.687,3.906,-29.785,-29.297,1.953,-79.590
1675199179.691,-8.301,-35.645,-28.320,0.977,-155.273
1675199179.696,-24.902,-33.203,-23.438,-11.230,-205.078
1675199179.700,-16.113,-26.855,-22.461,-21.973,-67.871
1675199179.704,-3.906,-28.320,-27.832,-14.648,-65.430
1675199179.708,-3.906,-26.367,-30.273,-12.207,-108.887
1675199179.712,-17.578,-25.391,-28.320,-22.461,-56.641
1675199179.716,-35.156,-29.297,-21.973,-26.855,139.160
1675199179.720,-39.062,-32.715,-26.855,-32.715,155.273
1675199179.723,-22.949,-38.086,-32.227,-26.855,-54.688
1675199179.727,-8.789,-41.016,-30.762,-15.137,-3.418
1675199179.731,-15.137,-20.508,-23.926,-13.184,96.680
1675199179.735,-23.926,-7.324,-22.461,-14.160,-102.051
1675199179.739,-23.438,-14.160,-28.809,-21.973,-250.977
1675199179.752,-31.250,-17.578,-30.762,-40.039,-118.652
1675199179.756,-36.133,-24.414,-32.227,-30.273,145.508
1675199179.760,-29.297,-33.203,-38.086,-17.090,93.262
1675199179.764,-42.480,-33.691,-34.180,-40.039,-37.598
1675199179.768,-49.805,-29.297,-31.250,-43.457,4.883
1675199179.772,-31.250,-37.598,-30.762,-30.273,395.996
1675199179.776,-18.555,-38.086,-32.227,-24.414,352.051
1675199179.779,-21.973,-31.250,-33.691,-24.414,-78.613
1675199179.783,-33.203,-28.320,-27.344,-32.715,-132.812
1675199179.787,-31.738,-22.461,-24.414,-36.133,-74.219
1675199179.791,-25.879,-26.367,-34.180,-33.691,-221.191
1675199179.795,-20.020,-29.297,-34.668,-26.855,-210.938
1675199179.797,-13.672,-25.879,-30.762,-22.949,-122.070
1675199179.801,-23.438,-27.344,-30.273,-28.320,-187.500
1675199179.805,-39.551,-39.551,-31.250,-39.062,-219.238
1675199179.809,-36.621,-42.969,-38.574,-37.598,-200.684
1675199179.813,-17.578,-32.715,-37.598,-22.461,-90.332
1675199179.817,-17.578,-35.645,-31.250,-10.742,107.422
1675199179.821,-32.715,-33.203,-32.227,-23.438,-4.883
1675199179.824,-41.016,-21.484,-37.109,-34.180,-182.617
1675199179.828,-31.250,-22.461,-39.551,-19.531,198.242
1675199179.832,-17.090,-19.043,-35.645,-3.418,377.441
1675199179.836,-18.555,-24.902,-27.832,-5.859,10.254
1675199179.840,-31.738,-33.691,-21.973,-19.043,-85.938
1675199179.843,-47.852,-21.973,-24.902,-33.203,-67.383
1675199179.847,-41.504,-19.531,-28.320,-28.809,-200.195
1675199179.851,-17.090,-21.973,-31.250,-17.578,-172.852
1675199179.855,-4.883,-27.832,-31.738,-8.301,73.242
1675199179.859,-21.973,-38.574,-27.344,-8.301,174.805
1675199179.863,-34.668,-33.203,-27.832,-22.461,0.488
1675199179.867,-23.926,-27.344,-29.785,-23.926,-133.301
1675199179.870,-7.812,-21.973,-32.227,-10.254,-41.992
1675199179.874,0.000,-19.531,-33.691,-4.883,220.703
1675199179.878,-16.602,-20.020,-36.621,-21.484,-8.789
1675199179.882,-31.250,-18.555,-32.227,-30.273,-248.047
1675199179.886,-30.762,-21.973,-29.297,-30.273,-94.238
1675199179.890,-19.043,-27.832,-40.527,-26.855,-102.539
1675199179.894,-9.766,-35.156,-42.969,-21.973,-180.176
1675199179.898,-13.672,-33.203,-37.109,-26.367,-137.695
1675199179.902,-22.949,-25.391,-35.156,-37.109,-110.352
1675199179.906,-26.855,-29.785,-31.250,-42.969,-192.383
1675199179.910,-11.719,-41.016,-32.715,-34.180,-208.984
1675199179.914,-1.953,-27.832,-36.133,-15.137,11.230
1675199179.917,-3.418,-12.207,-29.785,-7.324,316.895
1675199179.921,-23.438,-12.695,-26.367,-25.879,157.715
1675199179.925,-44.922,-23.438,-32.227,-47.852,-229.492
1675199179.929,-33.691,-33.203,-29.785,-38.086,-175.781
1675199179.933,-17.578,-37.598,-30.273,-22.949,-30.273
1675199179.932,-20.996,-46.387,-33.203,-26.855,-67.383
1675199179.936,-39.551,-43.457,-33.203,-39.062,-162.598
1675199179.940,-45.898,-39.551,-29.785,-47.363,-110.352
1675199179.944,-32.715,-46.387,-25.879,-43.945,51.270
1675199179.948,-20.020,-29.297,-27.832,-28.320,31.738
1675199179.952,-19.531,-15.137,-25.879,-23.926,4.395
1675199179.956,-31.738,-28.320,-30.762,-37.109,43.457
1675199179.959,-40.527,-30.273,-36.621,-32.715,315.918
1675199179.963,-37.598,-24.902,-38.574,-22.461,284.668
1675199179.967,-22.949,-27.344,-36.621,-20.508,-120.117
1675199179.971,-20.020,-29.785,-29.297,-9.277,-135.254
1675199179.975,-35.645,-33.203,-27.344,-20.508,-78.125
1675199179.979,-47.363,-36.621,-32.227,-36.621,-201.660
1675199179.983,-41.992,-40.527,-34.180,-26.367,-232.910
1675199179.987,-23.438,-34.668,-31.250,-12.207,-71.289
1675199179.991,-18.555,-25.391,-32.715,-15.137,-59.570
1675199179.995,-25.391,-20.996,-36.621,-21.973,-186.523
1675199179.999,-42.969,-27.344,-37.598,-33.203,-166.016
1675199180.003,-37.598,-26.855,-39.062,-33.691,147.461
1675199180.006,-16.602,-20.996,-36.621,-23.438,229.492
1675199180.010,-17.090,-24.902,-39.551,-23.926,-45.898
1675199180.014,-27.344,-33.203,-40.039,-29.785,-82.520
1675199180.018,-45.898,-25.391,-32.227,-32.227,-6.348
1675199180.022,-47.363,-21.973,-24.414,-34.668,-161.621
1675199180.022,-24.414,-35.156,-28.809,-30.762,-216.309
1675199180.026,-16.602,-31.250,-36.621,-27.832,-71.777
1675199180.030,-29.785,-20.996,-34.668,-31.250,44.922
1675199180.034,-45.410,-19.043,-34.180,-37.598,7.324
1675199180.038,-44.434,-28.320,-34.668,-42.480,-174.316
1675199180.042,-22.949,-30.273,-30.762,-22.949,-49.316
1675199180.046,-13.184,-24.414,-30.273,-4.395,456.543
1675199180.049,-18.066,-26.855,-29.297,-8.789,362.305
1675199180.053,-31.250,-30.273,-37.109,-28.320,-87.402
1675199180.057,-34.180,-40.527,-35.645,-31.250,-30.762
1675199180.061,-17.578,-35.645,-27.344,-18.555,-39.551
1675199180.065,-3.906,-21.973,-29.297,-17.578,-164.551
1675199180.071,-11.230,-27.344,-26.855,-17.578,-102.539
1675199180.075,-25.879,-26.855,-25.391,-20.508,-109.863
1675199180.079,-41.016,-29.297,-26.367,-33.691,-167.480
1675199180.083,-33.203,-30.273,-26.855,-27.344,-162.109
1675199180.087,-16.113,-34.180,-28.809,-19.531,-132.812
1675199180.091,-16.602,-47.852,-25.391,-26.367,10.742
1675199180.095,-38.574,-46.875,-26.367,-36.133,20.996
1675199180.098,-48.340,-44.434,-33.203,-46.387,-146.484
1675199180.102,-35.645,-40.039,-28.809,-41.016,-225.586
1675199180.106,-21.484,-28.809,-23.438,-22.949,101.074
1675199180.110,-25.391,-39.062,-34.668,-29.297,256.348
1675199180.114,-41.992,-36.621,-35.645,-47.363,-105.469
1675199180.127,-45.898,-28.809,-24.414,-45.898,-130.859
1675199180.131,-38.574,-27.344,-23.926,-41.504,-69.336
1675199180.135,-19.043,-29.297,-27.832,-30.762,-108.887
1675199180.139,-7.324,-36.621,-30.762,-23.438,-59.570
1675199180.143,-26.855,-32.715,-29.785,-33.691,-70.312
1675199180.147,-30.762,-21.973,-23.926,-23.926,341.797
1675199180.151,-21.973,-24.414,-23.926,-8.789,351.562
1675199180.154,-4.883,-40.039,-26.367,-2.441,-104.004
1675199180.158,-3.418,-44.922,-24.414,-1.953,-63.965
1675199180.162,-31.250,-36.133,-29.785,-24.414,22.949
1675199180.166,-46.387,-36.621,-33.691,-42.969,-190.430
1675199180.170,-39.062,-30.273,-33.203,-39.551,-264.648
1675199180.172,-21.484,-26.367,-32.227,-30.273,-113.770
1675199180.176,-19.043,-28.809,-28.809,-25.879,-61.523
1675199180.180,-34.180,-23.926,-29.785,-36.133,-151.855
1675199180.184,-47.852,-24.902,-20.020,-43.945,-181.641
1675199180.188,-45.410,-33.203,-17.578,-37.598,32.227
1675199180.192,-33.203,-37.598,-28.809,-35.156,98.145
1675199180.196,-25.391,-35.156,-31.250,-33.691,-39.551
1675199180.199,-31.738,-36.133,-32.227,-32.227,-70.801
1675199180.203,-38.574,-26.855,-28.320,-27.832,142.578
1675199180.207,-32.227,-18.066,-24.902,-31.250,87.402
1675199180.211,-22.949,-21.973,-30.762,-34.668,-184.570
1675199180.215,-10.742,-20.996,-29.785,-12.695,-167.969
1675199180.218,-10.254,-25.391,-28.320,-6.836,-107.422
1675199180.222,-34.180,-27.832,-29.297,-28.320,-161.133
1675199180.226,-38.086,-24.414,-29.297,-36.133,-173.340
1675199180.230,-18.066,-20.508,-26.367,-27.344,29.297
1675199180.234,-0.488,-17.090,-27.344,-6.348,228.027
1675199180.238,-6.836,-24.902,-34.180,-3.906,100.098
1675199180.242,-36.133,-35.645,-31.250,-23.438,-110.352
1675199180.245,-42.480,-29.297,-26.367,-30.762,-98.633
1675199180.249,-22.461,-20.508,-20.996,-10.254,281.738
1675199180.253,-19.043,-22.461,-29.297,-10.742,175.293
1675199180.257,-27.832,-24.414,-38.086,-20.996,-119.141
1675199180.261,-35.156,-18.066,-33.691,-24.902,-127.930
1675199180.263,-48.340,-27.344,-32.227,-34.180,-222.656
1675199180.267,-39.551,-44.434,-31.738,-25.879,-254.883
1675199180.271,-20.020,-38.574,-31.738,-10.254,-112.305
1675199180.275,-13.672,-25.879,-24.902,-5.371,-9.766
1675199180.279,-27.344,-25.391,-19.531,-20.508,-90.820
1675199180.283,-45.410,-24.902,-22.461,-40.039,-141.602
1675199180.287,-32.715,-27.344,-23.438,-35.645,-104.980
1675199180.290,-8.301,-27.832,-24.902,-19.043,191.895
1675199180.294,-8.301,-19.043,-25.879,-18.555,218.750
1675199180.298,-24.902,-20.996,-18.066,-29.297,-164.551
1675199180.302,-36.621,-18.555,-14.648,-38.574,-186.523
1675199180.306,-25.391,-17.090,-22.949,-34.180,26.367
1675199180.316,-8.789,-31.738,-24.414,-17.090,-11.230
1675199180.320,-15.137,-41.504,-27.344,-15.625,-65.430
1675199180.324,-34.668,-33.203,-33.203,-20.508,-35.645
1675199180.328,-47.852,-16.602,-31.250,-19.531,-30.273
1675199180.332,-41.016,-17.090,-26.855,-20.996,-199.707
1675199180.336,-24.414,-28.809,-26.367,-19.043,-184.082
1675199180.340,-21.973,-34.668,-25.879,-9.766,44.922
1675199180.343,-27.832,-32.715,-24.902,-10.254,367.676
1675199180.347,-44.922,-27.832,-32.227,-31.250,129.395
1675199180.351,-47.363,-30.273,-36.133,-38.574,-243.652
1675199180.355,-30.762,-34.180,-36.133,-25.879,-134.766
1675199180.359,-15.625,-27.832,-37.598,-17.090,-46.387
1675199180.355,-20.996,-22.949,-34.668,-16.113,-119.141
1675199180.359,-37.598,-23.438,-36.133,-31.250,-176.758
1675199180.363,-37.598,-22.949,-38.086,-31.738,-13.672
1675199180.367,-28.320,-28.320,-36.133,-22.949,11.230
1675199180.371,-16.113,-43.457,-33.691,-20.020,-68.359
1675199180.375,-18.066,-37.598,-31.738,-22.461,1.465
1675199180.379,-36.133,-27.832,-32.227,-29.785,216.797
1675199180.382,-43.945,-32.227,-29.785,-28.809,144.043
1675199180.386,-29.297,-38.574,-31.738,-22.461,-168.945
1675199180.390,-10.742,-34.668,-35.156,-20.508,-153.809
1675199180.394,-20.508,-31.738,-28.320,-20.508,-51.758
1675199180.398,-39.551,-35.156,-32.715,-28.809,-112.305
1675199180.397,-42.969,-37.109,-38.086,-39.551,-122.559
1675199180.401,-30.273,-32.227,-35.645,-29.297,-139.160
1675199180.405,-12.207,-33.691,-30.762,-6.836,-44.922
1675199180.409,-18.066,-34.180,-22.461,-5.371,83.008
1675199180.413,-39.551,-28.320,-21.484,-22.949,-80.078
1675199180.417,-43.945,-31.738,-21.484,-32.227,-101.562
1675199180.421,-21.973,-41.016,-19.043,-20.508,367.188
1675199180.424,-13.184,-41.016,-26.367,-10.742,329.590
1675199180.428,-11.719,-27.344,-33.203,-12.695,-105.469
1675199180.432,-19.531,-17.578,-28.320,-20.020,-83.984
1675199180.436,-43.945,-13.672,-24.902,-33.203,-23.438
1675199180.440,-34.668,-22.461,-26.367,-32.715,-167.969
1675199180.444,-14.648,-45.410,-33.691,-22.461,-159.180
1675199180.448,-18.555,-40.527,-27.832,-22.461,-24.902
1675199180.452,-34.180,-22.949,-23.438,-32.227,-50.781
1675199180.456,-46.387,-21.484,-26.855,-40.039,-195.312
1675199180.460,-42.480,-36.133,-24.414,-40.039,-177.246
1675199180.464,-15.625,-34.668,-22.461,-19.531,62.500
1675199180.468,-10.742,-28.320,-24.414,-16.602,43.457
1675199180.471,-37.598,-34.180,-29.297,-39.062,-99.609
1675199180.475,-51.758,-30.762,-25.391,-42.480,-124.512
1675199180.479,-41.016,-36.621,-20.508,-29.297,135.254
1675199180.483,-25.879,-41.504,-23.438,-18.066,259.277
1675199180.487,-18.066,-34.668,-32.715,-14.648,-10.742
1675199180.502,-24.414,-26.367,-33.691,-19.043,-54.199
1675199180.506,-47.363,-21.973,-25.391,-36.133,-88.379
1675199180.510,-41.992,-29.785,-15.137,-37.109,-154.297
1675199180.514,-21.484,-36.621,-11.719,-27.344,-141.602
1675199180.518,-7.324,-26.367,-17.090,-10.254,-106.934
1675199180.522,-4.395,-20.020,-11.719,-1.465,244.141
1675199180.526,-30.273,-22.461,-17.090,-27.832,138.184
1675199180.529,-37.109,-25.879,-31.250,-36.621,-227.539
1675199180.533,-20.020,-35.156,-38.574,-19.043,-65.918
1675199180.537,-8.301,-37.109,-30.273,-3.418,187.500
1675199180.541,-17.090,-23.926,-25.391,-13.184,-13.672
1675199180.545,-38.574,-21.484,-29.297,-38.574,-158.691
1675199180.548,-41.992,-21.973,-28.320,-41.992,-16.602
1675199180.552,-30.273,-19.531,-32.715,-31.738,-15.625
1675199180.556,-17.090,-25.879,-39.551,-28.809,-168.457
1675199180.560,-18.066,-29.297,-36.133,-29.297,-157.715
1675199180.564,-38.574,-27.832,-28.809,-31.250,-54.199
1675199180.568,-44.922,-30.273,-27.832,-29.297,-81.543
1675199180.572,-29.785,-35.645,-32.227,-21.973,-110.352
1675199180.575,-14.648,-45.898,-35.156,-15.625,-71.289
1675199180.579,-14.648,-53.711,-31.738,-9.766,135.742
1675199180.583,-29.785,-38.574,-29.785,-20.508,53.223
1675199180.587,-45.410,-24.414,-28.809,-35.156,-250.977
1675199180.591,-36.621,-22.461,-23.926,-27.344,-195.801
1675199180.592,-21.484,-27.344,-27.832,-15.625,-23.926
1675199180.596,-28.320,-40.527,-33.203,-24.414,-69.336
1675199180.600,-46.875,-41.016,-30.273,-36.133,-163.574
1675199180.604,-47.852,-31.738,-26.367,-36.133,-76.660
1675199180.608,-30.762,-31.250,-24.902,-22.461,269.531
1675199180.612,-23.926,-35.156,-32.227,-19.043,229.004
1675199180.616,-23.438,-36.133,-34.180,-26.855,-47.852
1675199180.619,-27.344,-38.574,-30.762,-34.668,-27.832
1675199180.623,-34.180,-37.109,-34.180,-34.668,184.082
1675199180.627,-36.133,-38.574,-39.062,-33.203,-58.105
1675199180.631,-15.137,-28.809,-28.809,-20.020,-239.258
1675199180.635,-5.371,-24.902,-20.508,-12.207,-96.191
1675199180.639,-23.438,-35.156,-22.949,-25.391,-91.797
1675199180.643,-39.551,-31.738,-21.484,-36.621,-164.551
1675199180.647,-36.621,-29.297,-20.020,-35.156,-190.430
1675199180.651,-17.578,-31.738,-17.578,-15.625,-125.977
1675199180.655,-10.742,-35.156,-20.996,-3.418,-89.355
1675199180.659,-26.855,-34.180,-22.949,-12.207,-60.547
1675199180.663,-36.621,-27.344,-20.996,-23.926,-21.484
1675199180.666,-27.832,-24.902,-17.090,-16.113,124.512
1675199180.670,-13.672,-39.551,-22.461,-7.812,20.996
1675199180.674,-7.812,-40.039,-28.809,-9.766,-154.785
1675199180.678,-9.766,-20.996,-25.879,0.000,-148.438
1675199180.682,-20.020,-18.555,-19.531,-0.488,88.379
1675199180.682,-30.273,-24.414,-18.066,-14.648,71.289
1675199180.686,-19.043,-34.668,-27.344,-16.602,-220.215
1675199180.690,-7.812,-37.598,-28.809,-7.812,-92.773
1675199180.694,-19.531,-28.809,-26.855,-15.625,108.887
1675199180.698,-30.273,-27.344,-32.227,-29.785,-4.395
1675199180.702,-34.668,-29.297,-37.598,-32.715,-96.680
1675199180.706,-18.555,-25.391,-40.527,-25.391,-4.883
1675199180.709,0.000,-20.508,-34.668,-1.465,319.824
1675199180.713,-21.484,-37.109,-36.133,-6.836,139.160
1675199180.717,-39.551,-40.039,-35.645,-32.715,-214.355
1675199180.721,-40.039,-30.762,-25.391,-37.598,-108.887
1675199180.725,-28.809,-34.668,-31.738,-27.832,-69.336
1675199180.729,-1.465,-33.203,-49.805,-16.602,-139.160
1675199180.733,1.953,-19.531,-38.574,-8.789,-140.625
1675199180.737,-30.273,-20.020,-23.926,-21.484,-117.676
1675199180.741,-48.828,-27.832,-31.738,-33.691,-162.598
1675199180.745,-41.992,-29.297,-32.227,-33.203,-201.172
1675199180.749,-19.043,-26.367,-29.297,-22.949,-8.301
1675199180.753,-5.371,-27.344,-30.273,-14.160,297.852
1675199180.756,-31.738,-36.133,-32.227,-34.180,263.184
1675199180.760,-48.828,-34.668,-41.016,-58.105,-93.262
1675199180.764,-27.832,-27.832,-38.574,-45.410,-179.199
1675199180.768,-12.207,-22.461,-26.855,-26.855,-105.957
1675199180.772,-12.695,-31.250,-27.344,-30.762,-157.715
1675199180.773,-35.156,-45.898,-36.621,-44.434,-210.938
1675199180.777,-45.410,-33.203,-36.133,-46.875,-160.645
1675199180.781,-29.297,-29.297,-30.273,-34.180,49.805
1675199180.785,-18.066,-36.621,-33.691,-27.344,18.555
1675199180.789,-19.043,-31.738,-34.668,-26.367,-124.512
1675199180.793,-28.809,-22.461,-25.391,-27.832,-15.137
1675199180.797,-43.457,-28.320,-22.461,-32.227,299.316
1675199180.800,-46.387,-35.645,-30.762,-41.504,224.609
1675199180.804,-30.762,-39.551,-34.668,-37.598,-116.699
1675199180.808,-27.832,-36.133,-34.668,-22.461,-106.445
1675199180.812,-40.039,-29.785,-34.668,-35.156,-62.012
1675199180.816,-48.828,-27.344,-37.598,-56.152,-110.352
1675199180.819,-40.039,-23.926,-33.691,-51.270,-208.496
1675199180.823,-26.367,-28.320,-30.273,-34.668,-145.020
1675199180.827,-23.438,-36.133,-30.762,-26.855,-83.496
1675199180.831,-23.438,-32.227,-22.949,-21.484,-161.133
1675199180.835,-36.621,-26.855,-31.738,-34.668,-142.578
1675199180.839,-31.250,-23.926,-33.691,-41.992,152.832
1675199180.843,-23.438,-26.367,-33.691,-35.645,250.977
1675199180.846,-29.785,-30.762,-42.969,-36.621,-58.105
1675199180.850,-31.738,-31.250,-40.039,-36.133,-107.910
1675199180.854,-45.898,-31.738,-37.598,-41.016,20.508
1675199180.858,-47.852,-35.645,-38.086,-47.852,-109.375
1675199180.862,-29.785,-35.645,-40.039,-42.969,-160.645
1675199180.877,-13.184,-34.180,-33.203,-26.855,-40.527
1675199180.881,-20.508,-30.762,-27.832,-27.344,-57.129
1675199180.885,-40.527,-21.484,-28.809,-27.344,-130.859
1675199180.889,-44.922,-18.066,-28.320,-29.297,-161.133
1675199180.893,-33.203,-27.344,-29.297,-25.879,-77.637
1675199180.897,-13.672,-26.855,-22.949,-1.465,314.453
1675199180.901,-18.555,-18.555,-25.391,-4.395,250.977
1675199180.904,-34.668,-23.438,-24.414,-21.973,-148.926
1675199180.908,-31.250,-27.344,-21.973,-25.879,-162.109
1675199180.912,-19.531,-28.809,-26.367,-15.625,124.512
1675199180.916,-15.625,-37.109,-29.785,-9.277,-21.973
1675199180.920,-12.695,-23.926,-26.855,-7.324,-161.621
1675199180.922,-20.508,-10.254,-24.902,-14.648,-70.312
1675199180.926,-33.203,-28.320,-31.738,-30.273,-91.797
1675199180.930,-16.602,-30.762,-30.273,-30.762,-91.309
1675199180.934,5.859,-15.625,-27.832,-19.531,-81.543
1675199180.938,3.418,-20.020,-27.832,-15.137,10.742
1675199180.942,-11.230,-28.809,-20.996,-21.484,-6.348
1675199180.946,-24.902,-28.320,-18.555,-39.062,-109.863
1675199180.949,-20.020,-31.738,-23.438,-33.203,-55.664
1675199180.953,-9.766,-41.992,-30.762,-13.672,186.035
1675199180.957,-14.160,-43.945,-34.668,-10.254,174.316
1675199180.961,-30.273,-26.367,-29.297,-19.531,-119.141
1675199180.965,-35.156,-16.602,-19.531,-26.855,-12.207
1675199180.967,-33.691,-23.926,-20.508,-27.832,138.672
1675199180.971,-28.809,-25.879,-24.902,-19.043,-22.461
1675199180.975,-21.973,-21.484,-24.414,-15.625,-98.633
1675199180.979,-31.250,-23.926,-31.250,-30.273,15.137
1675199180.983,-36.621,-27.832,-35.645,-34.668,128.418
1675199180.987,-30.273,-25.391,-30.273,-27.832,-15.137
1675199180.991,-11.719,-20.508,-25.391,-15.137,-88.867
1675199180.994,0.000,-30.273,-27.832,-1.465,25.391
1675199180.998,-14.648,-43.457,-23.926,-3.418,241.211
1675199181.002,-31.250,-33.691,-24.414,-25.879,18.555
1675199181.006,-27.344,-19.043,-33.203,-31.738,-198.242
1675199181.010,-20.508,-24.414,-36.133,-26.367,-175.781
1675199181.013,-1.953,-23.926,-38.574,-15.625,-145.996
1675199181.017,5.371,-15.137,-35.156,-7.324,-133.789
1675199181.021,-28.320,-19.043,-29.785,-37.109,-123.047
1675199181.025,-41.016,-23.438,-25.391,-50.781,-41.504
1675199181.029,-25.879,-33.203,-20.996,-34.180,-66.406
1675199181.033,-24.902,-42.480,-26.855,-32.227,-120.605
1675199181.037,-34.180,-31.250,-32.715,-37.598,-90.332
1675199181.040,-42.969,-26.367,-27.832,-33.691,58.594
1675199181.044,-46.387,-31.250,-29.297,-41.016,41.504
1675199181.048,-35.645,-32.715,-29.785,-45.410,-160.156
1675199181.052,-19.043,-23.926,-25.879,-29.785,-135.742
1675199181.056,-7.812,-20.020,-27.344,-16.113,-65.430
1675199181.057,-29.297,-27.832,-29.785,-26.367,-94.727
1675199181.061,-41.992,-24.902,-32.227,-33.203,-203.125
1675199181.065,-21.973,-17.578,-32.227,-16.113,-143.555
1675199181.069,-15.137,-29.785,-29.297,-9.277,80.078
1675199181.073,-17.090,-40.527,-26.855,-14.160,14.648
1675199181.077,-31.738,-41.504,-26.855,-23.926,-120.117
1675199181.081,-45.898,-38.086,-23.438,-31.738,-66.895
1675199181.084,-24.902,-20.020,-13.672,-12.695,365.234
1675199181.088,-12.207,-21.484,-22.461,-9.277,397.461
1675199181.092,-27.344,-25.879,-35.645,-20.996,0.977
1675199181.096,-39.551,-20.996,-36.133,-24.902,-55.176
1675199181.100,-49.805,-30.762,-36.133,-34.180,-98.633
1675199181.104,-37.109,-37.598,-33.203,-31.250,-214.844
1675199181.108,-18.066,-37.598,-31.738,-30.273,-168.945
1675199181.112,-14.648,-41.504,-31.250,-26.367,-66.406
1675199181.116,-29.297,-28.809,-29.297,-29.785,-120.117
1675199181.120,-45.898,-16.602,-31.250,-44.434,-239.258
1675199181.124,-38.574,-24.414,-33.691,-39.551,-213.867
1675199181.128,-11.719,-34.180,-30.273,-15.625,77.637
1675199181.131,-7.812,-33.691,-27.832,-6.836,157.227
1675199181.135,-27.832,-29.785,-31.738,-29.297,-70.312
1675199181.139,-37.598,-26.367,-32.715,-34.668,-34.180
1675199181.143,-27.832,-28.320,-28.809,-21.973,62.500
1675199181.147,-13.672,-36.133,-33.691,-20.996,-54.688
1675199181.162,-12.207,-41.992,-33.691,-20.996,-92.773
1675199181.166,-28.320,-31.250,-25.879,-28.320,-68.359
1675199181.170,-43.945,-19.043,-27.832,-41.016,-72.754
1675199181.174,-37.109,-19.043,-33.691,-41.016,-42.969
1675199181.178,-30.273,-34.668,-36.621,-34.668,-92.285
1675199181.182,-23.438,-39.062,-31.738,-21.973,19.531
1675199181.186,-19.043,-29.785,-25.391,-8.301,402.344
1675199181.189,-39.551,-25.391,-35.156,-33.203,279.785
1675199181.193,-47.852,-29.785,-38.086,-55.664,-151.367
1675199181.197,-19.531,-39.551,-30.273,-33.691,-115.723
1675199181.201,-0.977,-28.809,-28.809,-14.160,-47.852
1675199181.205,-7.324,-19.043,-24.414,-13.672,-128.906
1675199181.196,-19.531,-35.645,-19.531,-26.367,-118.652
1675199181.200,-26.367,-30.273,-17.578,-32.715,-114.746
1675199181.204,-19.043,-20.020,-24.414,-27.344,-76.172
1675199181.208,-14.648,-28.809,-28.320,-28.809,-151.367
1675199181.212,-21.973,-30.273,-25.879,-27.832,-207.520
1675199181.216,-33.691,-20.996,-27.832,-38.086,-54.199
1675199181.220,-37.109,-24.414,-20.996,-48.340,30.273
1675199181.223,-22.949,-41.992,-18.066,-33.203,-59.082
1675199181.227,-4.395,-26.367,-21.973,-14.648,-116.699
1675199181.231,0.488,-11.230,-21.484,-9.766,171.875
1675199181.235,-20.020,-18.066,-24.414,-24.414,163.574
1675199181.239,-33.203,-29.297,-24.414,-32.715,-180.176
1675199181.252,-21.484,-31.738,-23.926,-28.809,-168.457
1675199181.256,-4.395,-25.391,-25.879,-22.949,-56.152
1675199181.260,-2.930,-21.484,-31.250,-27.344,-26.367
1675199181.264,-0.977,-20.996,-34.668,-22.461,-31.738
1675199181.268,-4.883,-30.273,-27.832,-12.207,-0.977
1675199181.272,-20.020,-30.762,-19.531,-14.160,376.465
1675199181.276,-20.020,-18.555,-20.508,-19.531,340.820
1675199181.279,-20.020,-21.484,-19.531,-24.414,-53.711
1675199181.283,-39.062,-27.832,-16.602,-36.133,-73.730
1675199181.287,-56.641,-36.133,-11.719,-45.898,-70.312
1675199181.291,-63.965,-50.781,-7.812,-49.316,-241.211
1675199181.295,-47.852,-55.664,-20.508,-40.527,-218.262
1675199181.297,-35.645,-67.383,-21.973,-33.203,-9.766
1675199181.301,-53.223,-75.684,-17.578,-47.363,-13.672
1675199181.305,-63.965,-57.617,-24.414,-55.176,-195.312
1675199181.309,-56.641,-47.852,-26.367,-54.688,-172.363
1675199181.313,-36.621,-53.711,-22.949,-43.945,-44.922
1675199181.317,-31.738,-57.617,-26.367,-30.273,-3.906
1675199181.321,-40.039,-56.641,-23.926,-27.832,-31.250
1675199181.324,-45.898,-52.734,-18.066,-33.203,-131.836
1675199181.328,-41.992,-47.363,-18.555,-28.320,55.176
1675199181.332,-20.996,-45.410,-24.414,-13.184,291.992
1675199181.336,-18.066,-51.758,-29.297,-20.020,2.441
1675199181.340,-29.297,-51.758,-24.414,-32.715,-83.496
1675199181.342,-38.574,-46.875,-18.066,-44.434,-37.598
1675199181.346,-47.363,-49.316,-17.090,-51.758,-206.543
1675199181.350,-37.109,-61.523,-24.414,-43.457,-180.664
1675199181.354,-19.043,-44.922,-22.949,-24.902,61.523
1675199181.358,-29.785,-31.250,-20.508,-18.555,239.258
1675199181.362,-56.641,-38.574,-25.391,-37.109,84.961
1675199181.366,-56.641,-37.598,-27.344,-45.898,-138.184
1675199181.369,-37.598,-41.992,-24.902,-31.738,-40.039
1675199181.373,-20.508,-47.363,-20.020,-14.648,282.227
1675199181.377,-32.715,-51.270,-27.832,-24.414,110.840
1675199181.381,-50.293,-51.758,-25.391,-40.039,-112.305
1675199181.385,-50.293,-44.434,-17.090,-38.574,-71.777
1675199181.388,-34.180,-48.828,-18.555,-30.762,-67.871
1675199181.392,-23.438,-50.781,-24.414,-32.227,-124.512
1675199181.396,-29.785,-31.738,-26.367,-31.738,-148.438
1675199181.400,-47.852,-26.367,-30.273,-40.039,-130.371
1675199181.404,-55.176,-33.203,-31.738,-48.828,-194.824
1675199181.408,-41.016,-41.992,-27.832,-38.574,-108.887
1675199181.412,-21.973,-41.992,-28.809,-21.484,10.254
1675199181.415,-19.043,-34.668,-27.344,-13.672,198.730
1675199181.419,-33.203,-31.250,-28.320,-23.926,152.344
1675199181.423,-45.898,-33.691,-34.668,-40.527,-193.848
1675199181.427,-38.086,-41.992,-34.180,-36.621,-211.426
1675199181.431,-20.508,-45.898,-22.461,-20.508,-72.266
1675199181.434,-16.113,-47.852,-18.555,-14.160,-39.551
1675199181.438,-30.273,-36.621,-20.508,-22.461,-150.391
1675199181.442,-41.504,-20.508,-17.578,-31.250,-175.781
1675199181.446,-29.297,-14.648,-15.137,-19.531,149.414
1675199181.450,-19.531,-14.160,-26.367,-18.555,56.641
1675199181.454,-23.438,-18.066,-28.320,-19.043,-79.590
1675199181.458,-35.156,-18.555,-21.484,-21.973,17.578
1675199181.461,-44.434,-23.926,-23.926,-30.762,209.473
1675199181.465,-45.410,-38.086,-29.785,-40.039,16.602
1675199181.469,-28.320,-39.062,-22.461,-29.785,-175.781
1675199181.473,-15.137,-37.109,-19.531,-17.090,-28.320
1675199181.477,-30.762,-40.039,-25.879,-32.227,-59.082
1675199181.479,-52.734,-35.156,-29.297,-47.852,-181.641
1675199181.483,-42.480,-31.738,-25.879,-46.387,-168.945
1675199181.487,-21.973,-31.250,-22.461,-32.715,-50.293
1675199181.491,-16.113,-32.715,-25.879,-23.438,-65.430
1675199181.495,-18.066,-37.109,-24.902,-26.367,-99.609
1675199181.499,-31.738,-30.273,-23.438,-40.039,-94.727
1675199181.503,-41.016,-21.484,-25.391,-42.480,194.824
1675199181.506,-27.344,-24.414,-28.809,-24.414,356.934
1675199181.510,-10.742,-27.344,-32.227,-21.973,-5.371
1675199181.514,-17.578,-29.785,-22.461,-20.508,-73.730
1675199181.518,-35.645,-35.156,-24.414,-24.414,-20.996
1675199181.522,-38.086,-41.016,-27.344,-35.156,-148.438
1675199181.522,-20.508,-47.363,-20.996,-22.949,-165.039
1675199181.526,-10.742,-38.574,-23.926,-9.766,-61.523
1675199181.530,-14.648,-28.320,-31.250,-18.555,-29.785
1675199181.534,-30.762,-23.926,-34.668,-32.715,-37.598
1675199181.538,-46.875,-25.879,-37.109,-43.945,-155.762
1675199181.542,-33.203,-33.203,-40.039,-34.180,-108.887
1675199181.546,-15.625,-43.945,-36.133,-7.324,372.559
1675199181.549,-30.273,-47.363,-35.645,-5.859,291.016
1675199181.553,-41.016,-35.156,-35.156,-20.996,-126.465
1675199181.557,-38.086,-31.738,-26.855,-32.715,-141.602
1675199181.561,-34.668,-38.574,-25.879,-35.645,-101.562
1675199181.565,-21.484,-37.598,-36.133,-28.809,-192.383
1675199181.569,-20.020,-32.227,-42.480,-34.668,-145.996
1675199181.573,-39.062,-39.062,-33.691,-46.387,-98.633
1675199181.577,-48.340,-47.852,-26.367,-44.922,-145.996
1675199181.581,-37.598,-36.133,-22.461,-35.156,-181.641
1675199181.585,-21.484,-23.926,-23.438,-23.926,-143.555
1675199181.589,-20.996,-20.020,-27.344,-12.207,40.039
1675199181.593,-38.086,-22.949,-30.273,-21.484,22.949
1675199181.596,-53.223,-35.156,-33.691,-36.133,-167.969
1675199181.600,-45.898,-31.250,-35.645,-29.785,-196.289
1675199181.604,-14.648,-24.414,-27.344,-9.277,125.000
1675199181.608,-12.207,-35.645,-24.414,-7.324,99.609
1675199181.612,-28.809,-31.250,-29.297,-24.414,-113.770
1675199181.627,-34.180,-23.438,-28.809,-35.156,-76.172
1675199181.631,-33.203,-26.367,-27.832,-32.715,21.973
1675199181.635,-24.902,-34.668,-32.227,-27.344,1.953
1675199181.639,-20.508,-41.504,-31.738,-21.973,-87.891
1675199181.643,-31.250,-34.180,-22.461,-29.297,-77.637
1675199181.647,-42.969,-22.949,-14.160,-35.645,224.609
1675199181.651,-42.969,-21.973,-24.414,-38.574,100.586
1675199181.654,-28.320,-23.438,-38.086,-36.621,-191.406
1675199181.658,-11.719,-28.809,-31.250,-21.484,-62.012
1675199181.662,-18.555,-35.156,-20.020,-14.648,103.516
1675199181.666,-41.992,-29.297,-20.020,-38.086,-131.348
