timestamps,TP9,AF7,AF8,TP10,Right AUX
1675199285.262,-32.715,-35.156,-33.203,-32.227,-85.938
1675199285.266,-46.875,-35.156,-35.645,-46.387,-170.898
1675199285.270,-40.039,-44.434,-39.062,-45.898,-49.316
1675199285.274,-21.973,-45.898,-34.668,-28.320,-98.633
1675199285.278,-16.602,-38.574,-34.668,-24.902,-130.859
1675199285.282,-21.973,-35.645,-34.180,-31.738,127.441
1675199285.286,-36.621,-38.574,-30.762,-41.504,213.379
1675199285.289,-46.387,-40.039,-35.156,-55.176,-112.305
1675199285.293,-31.250,-37.109,-41.016,-45.410,-247.559
1675199285.297,-10.742,-31.250,-37.109,-20.508,5.371
1675199285.301,-14.648,-29.785,-31.738,-17.090,91.797
1675199285.305,-31.738,-28.809,-34.668,-29.785,-157.715
1675199285.305,-31.738,-28.809,-34.668,-29.785,-157.715
1675199285.307,-35.645,-30.762,-33.203,-33.203,-190.918
1675199285.311,-21.484,-33.203,-31.738,-20.508,-82.520
1675199285.315,-11.719,-31.250,-27.832,-9.277,-6.836
1675199285.319,-27.832,-37.109,-32.715,-24.414,43.945
1675199285.323,-50.293,-41.504,-41.016,-45.898,-50.781
1675199285.327,-52.734,-36.133,-37.109,-45.898,208.984
1675199285.331,-40.039,-35.645,-30.762,-34.668,467.285
1675199285.334,-31.250,-43.945,-34.668,-34.180,41.992
1675199285.338,-29.297,-41.992,-34.180,-36.621,-184.082
1675199285.342,-42.969,-36.621,-24.414,-40.527,88.379
1675199285.346,-62.988,-39.551,-28.320,-50.781,77.148
1675199285.350,-54.199,-44.434,-39.551,-45.898,-250.488
1675199285.352,-25.879,-47.363,-43.457,-22.461,-149.902
1675199285.356,-25.879,-39.551,-40.039,-33.203,-106.445
1675199285.360,-40.527,-32.715,-44.434,-52.246,-137.207
1675199285.364,-44.434,-34.180,-50.781,-57.129,-125.000
1675199285.368,-39.062,-34.180,-41.504,-50.781,-32.227
1675199285.372,-23.438,-36.621,-35.156,-26.855,168.945
1675199285.376,-22.949,-40.527,-41.016,-25.879,152.832
1675199285.379,-32.227,-39.551,-42.480,-41.992,28.320
1675199285.383,-29.785,-31.250,-34.668,-41.504,38.574
1675199285.387,-20.020,-26.367,-33.203,-27.344,223.145
1675199285.391,-14.160,-31.738,-38.574,-22.461,61.523
1675199285.395,-13.184,-35.156,-36.621,-21.973,-106.934
1675199285.397,-18.066,-37.109,-31.250,-22.461,-81.055
1675199285.401,-29.297,-39.551,-29.785,-35.645,-159.180
1675199285.405,-32.715,-36.133,-31.738,-39.551,-64.453
1675199285.409,-28.320,-37.598,-40.039,-30.273,-35.645
1675199285.413,-22.461,-39.062,-41.016,-19.531,120.605
1675199285.417,-40.039,-37.598,-42.480,-28.809,260.254
1675199285.421,-57.129,-36.133,-42.480,-42.480,38.086
1675199285.424,-50.293,-36.621,-38.574,-44.922,-162.109
1675199285.428,-33.691,-35.156,-35.645,-26.367,103.516
1675199285.432,-22.461,-30.762,-34.180,-13.184,290.527
1675199285.436,-34.180,-31.250,-39.062,-34.668,-125.000
1675199285.440,-51.758,-33.691,-42.969,-50.293,-279.785
1675199285.442,-51.270,-36.621,-42.480,-43.945,-172.363
1675199285.446,-32.227,-38.574,-42.969,-35.156,-153.320
1675199285.450,-11.719,-40.039,-41.504,-25.879,-214.844
1675199285.454,-17.578,-41.504,-37.109,-22.949,-156.738
1675199285.458,-36.621,-43.457,-36.621,-39.062,-150.391
1675199285.462,-40.039,-41.016,-38.574,-41.992,-182.617
1675199285.466,-28.809,-36.133,-41.016,-33.203,-144.043
1675199285.469,-13.672,-29.297,-37.109,-20.996,6.348
1675199285.473,-19.531,-24.902,-37.598,-15.137,168.457
1675199285.477,-41.992,-22.461,-40.039,-28.320,-41.992
1675199285.481,-44.434,-20.996,-33.203,-30.273,-236.816
1675199285.485,-35.156,-28.809,-35.645,-20.996,-189.941
1675199285.488,-21.484,-33.203,-34.180,-11.230,-38.086
1675199285.492,-16.113,-32.715,-31.738,-4.395,-7.324
1675199285.496,-35.156,-33.203,-37.598,-18.066,-86.914
1675199285.500,-41.504,-28.809,-34.180,-23.438,63.477
1675199285.504,-25.879,-30.762,-32.227,-11.230,151.855
1675199285.508,-17.090,-36.133,-33.691,-7.812,32.715
1675199285.512,-19.531,-34.180,-33.691,-9.766,-22.461
1675199285.515,-33.691,-34.180,-33.691,-17.578,163.086
1675199285.519,-61.035,-45.898,-36.621,-43.457,153.320
1675199285.523,-60.547,-52.246,-38.574,-56.152,-188.965
1675199285.527,-28.809,-44.434,-38.086,-31.738,-177.734
1675199285.531,-20.020,-38.574,-39.062,-22.461,-86.914
1675199285.533,-38.574,-34.180,-37.598,-41.016,-84.961
1675199285.537,-60.059,-34.180,-36.133,-54.199,-179.199
1675199285.541,-55.176,-40.039,-33.203,-49.805,-212.402
1675199285.545,-31.250,-42.969,-34.668,-40.527,-55.664
1675199285.549,-22.949,-41.016,-30.273,-28.809,-32.227
1675199285.553,-30.762,-35.156,-25.391,-28.809,-69.824
1675199285.557,-41.504,-28.320,-24.414,-37.109,-29.297
1675199285.560,-31.250,-27.344,-24.902,-26.367,202.148
1675199285.564,-11.719,-29.297,-32.715,-20.508,119.629
1675199285.568,-6.348,-35.645,-36.133,-22.949,-176.270
1675199285.572,-18.066,-38.086,-29.785,-16.602,-104.004
1675199285.576,-33.203,-31.738,-28.809,-23.926,-111.816
1675199285.577,-34.668,-31.738,-31.738,-36.621,-188.965
1675199285.581,-23.926,-35.156,-28.809,-29.785,-196.777
1675199285.585,-6.348,-29.297,-26.855,-4.883,31.738
1675199285.589,-12.207,-29.785,-30.762,-0.488,48.340
1675199285.593,-34.668,-32.715,-29.297,-28.320,-129.395
1675199285.597,-30.273,-25.879,-24.414,-31.250,-94.727
1675199285.601,-13.184,-25.391,-23.926,-10.742,218.750
1675199285.604,-6.836,-30.273,-30.762,-2.930,452.148
1675199285.608,-20.020,-31.250,-34.668,-15.137,72.266
1675199285.612,-32.227,-23.926,-35.156,-28.320,-153.809
1675199285.616,-29.785,-22.461,-35.156,-29.297,-130.371
1675199285.620,-16.602,-31.738,-37.109,-29.297,-190.430
1675199285.624,-1.465,-36.621,-40.039,-20.996,-199.707
1675199285.628,-13.184,-30.762,-37.109,-20.996,-130.371
1675199285.632,-38.086,-30.273,-32.715,-35.645,-141.113
1675199285.636,-41.992,-34.668,-28.320,-42.480,-143.066
1675199285.640,-26.855,-32.715,-28.809,-30.273,-146.973
1675199285.644,-8.301,-35.156,-34.180,-18.555,-14.160
1675199285.648,-14.160,-36.621,-37.598,-21.484,149.414
1675199285.651,-35.645,-38.574,-45.410,-44.434,-37.109
1675199285.655,-44.922,-41.992,-45.898,-55.176,-199.707
1675199285.659,-34.668,-41.016,-35.156,-33.691,-62.500
1675199285.663,-12.207,-34.668,-33.691,-13.184,139.160
1675199285.667,-14.648,-30.273,-38.086,-12.207,-5.371
1675199285.668,-36.133,-31.738,-35.645,-22.949,-143.066
1675199285.672,-41.992,-29.785,-33.203,-30.762,-42.969
1675199285.676,-33.203,-24.902,-35.156,-28.809,3.906
1675199285.680,-21.484,-29.297,-37.109,-24.902,-85.938
1675199285.684,-25.879,-37.109,-38.574,-32.715,-92.285
1675199285.688,-36.621,-30.762,-34.668,-35.645,146.484
1675199285.692,-44.434,-26.855,-32.715,-40.527,273.438
1675199285.695,-47.363,-32.227,-37.109,-55.176,-116.699
1675199285.699,-32.227,-33.203,-36.133,-42.969,-171.875
1675199285.703,-29.297,-37.109,-33.691,-25.879,20.020
1675199285.707,-42.480,-38.086,-32.715,-35.156,-72.754
1675199285.711,-56.641,-31.738,-32.715,-47.363,-219.727
1675199285.728,-49.805,-33.691,-29.785,-42.969,-223.633
1675199285.732,-28.809,-35.645,-27.344,-26.367,-82.031
1675199285.736,-18.066,-31.250,-29.297,-14.648,55.176
1675199285.740,-21.973,-25.879,-31.738,-22.949,-77.637
1675199285.744,-35.156,-21.973,-28.320,-36.621,-3.418
1675199285.748,-34.180,-26.855,-21.484,-37.109,297.363
1675199285.752,-15.137,-29.297,-20.996,-19.531,139.648
1675199285.755,1.953,-28.809,-25.391,-4.883,-40.039
1675199285.759,-6.348,-29.297,-22.949,-4.883,30.762
1675199285.763,-25.879,-31.250,-19.531,-14.648,79.102
1675199285.767,-29.297,-36.133,-28.320,-27.832,-193.848
1675199285.771,-11.719,-38.086,-35.645,-19.531,-251.465
1675199285.772,-3.906,-35.156,-36.621,-8.789,-83.008
1675199285.776,-18.555,-32.715,-37.598,-11.719,-46.875
1675199285.780,-38.086,-32.227,-37.109,-23.926,-82.520
1675199285.784,-48.340,-32.715,-36.133,-35.645,-129.883
1675199285.788,-35.156,-32.715,-31.738,-29.785,71.289
1675199285.792,-21.484,-34.668,-38.574,-23.438,187.988
1675199285.796,-33.691,-32.227,-38.086,-27.832,-19.043
1675199285.799,-53.711,-35.645,-33.203,-41.504,-79.102
1675199285.803,-53.223,-37.109,-35.645,-39.062,145.508
1675199285.807,-38.086,-34.668,-34.180,-29.785,233.887
1675199285.811,-27.344,-40.527,-41.504,-33.691,-32.227
1675199285.815,-28.320,-35.156,-39.551,-31.738,-80.566
1675199285.817,-40.527,-31.738,-38.574,-50.781,-107.910
1675199285.821,-53.711,-35.645,-42.969,-69.336,-203.125
1675199285.825,-46.387,-38.086,-44.434,-61.523,-247.559
1675199285.829,-21.484,-34.180,-38.086,-33.203,-101.074
1675199285.833,-6.836,-30.273,-27.832,-20.996,42.969
1675199285.837,-16.602,-30.273,-23.926,-22.461,41.016
1675199285.841,-29.785,-30.273,-20.020,-27.344,-34.668
1675199285.844,-16.602,-32.227,-16.602,-19.531,49.805
1675199285.848,5.859,-32.715,-19.043,0.977,360.352
1675199285.852,0.000,-34.180,-28.320,-3.418,180.176
1675199285.856,-17.578,-32.227,-24.414,-19.043,-85.938
1675199285.860,-35.156,-30.762,-20.020,-28.809,-71.777
1675199285.862,-37.109,-30.762,-21.484,-34.668,-111.328
1675199285.866,-23.926,-35.645,-28.809,-30.762,-146.484
1675199285.870,-21.484,-38.574,-32.715,-26.367,-42.969
1675199285.874,-38.574,-34.180,-30.273,-29.785,113.281
1675199285.878,-51.270,-34.668,-27.832,-42.480,30.762
1675199285.882,-53.223,-35.156,-24.414,-52.246,-89.355
1675199285.886,-41.504,-35.645,-28.320,-41.504,-34.668
1675199285.889,-30.273,-38.086,-35.156,-30.273,200.684
1675199285.893,-42.969,-35.156,-39.062,-39.062,208.008
1675199285.897,-49.316,-29.297,-36.133,-52.734,-167.969
1675199285.901,-40.039,-27.832,-29.297,-49.805,-242.188
1675199285.905,-22.949,-33.691,-28.809,-41.504,-93.262
1675199285.910,-13.672,-39.062,-35.645,-30.762,-51.758
1675199285.914,-27.832,-40.039,-36.133,-32.227,-144.531
1675199285.918,-42.480,-40.039,-37.109,-42.480,-76.660
1675199285.922,-44.434,-39.062,-38.574,-50.781,32.715
1675199285.926,-30.762,-37.598,-40.039,-41.016,-62.500
1675199285.930,-19.043,-36.133,-39.551,-23.438,16.113
1675199285.934,-17.090,-31.250,-31.250,-18.555,268.066
1675199285.937,-36.133,-33.203,-32.227,-30.273,293.945
1675199285.941,-50.293,-36.621,-35.645,-46.875,-73.242
1675199285.945,-38.574,-39.062,-38.086,-39.551,-229.980
1675199285.949,-24.902,-41.504,-36.133,-21.484,-51.270
1675199285.953,-25.391,-36.621,-30.762,-19.531,-5.859
1675199285.952,-35.156,-29.297,-26.367,-25.879,-161.133
1675199285.956,-40.527,-24.902,-27.344,-30.762,-195.312
1675199285.960,-24.414,-23.926,-27.832,-21.973,-10.254
1675199285.964,-9.766,-26.855,-28.320,-9.766,34.668
1675199285.968,-19.043,-31.250,-34.180,-18.555,-31.738
1675199285.972,-32.715,-27.832,-27.344,-39.551,-91.309
1675199285.976,-41.504,-27.344,-23.926,-52.734,104.980
1675199285.979,-31.738,-27.832,-26.855,-39.551,390.137
1675199285.983,-25.391,-29.785,-29.785,-38.086,87.402
1675199285.987,-32.227,-36.621,-30.762,-43.457,-185.059
1675199285.991,-44.434,-37.598,-28.809,-41.016,-167.480
1675199285.995,-52.734,-34.180,-28.809,-50.293,-187.500
1675199285.999,-38.574,-38.086,-25.879,-45.898,-165.527
1675199286.003,-12.695,-37.109,-27.344,-20.996,-111.328
1675199286.007,-4.395,-28.809,-32.227,-6.348,-31.250
1675199286.011,-21.484,-29.785,-33.691,-16.602,-93.750
1675199286.015,-32.227,-28.809,-27.832,-27.832,-263.184
1675199286.019,-18.066,-25.879,-28.320,-22.461,-81.543
1675199286.023,-0.977,-25.391,-34.668,-7.324,115.723
1675199286.026,-4.395,-31.250,-36.621,-4.395,37.109
1675199286.030,-19.043,-31.738,-34.668,-17.090,-85.449
1675199286.034,-28.320,-22.949,-28.320,-20.996,-13.672
1675199286.038,-23.926,-23.438,-23.438,-16.602,163.574
1675199286.042,-11.719,-27.832,-31.738,-20.508,-59.570
1675199286.057,-5.859,-29.297,-38.574,-16.602,-94.238
1675199286.061,-26.367,-30.762,-37.598,-26.855,4.395
1675199286.065,-45.410,-30.273,-35.645,-43.457,14.160
1675199286.069,-44.434,-33.691,-42.969,-49.316,-1.953
1675199286.073,-29.297,-34.180,-45.898,-43.945,-121.094
1675199286.077,-7.324,-25.879,-33.691,-16.113,253.418
1675199286.081,-14.160,-24.414,-30.273,-16.113,549.805
1675199286.084,-41.016,-30.762,-37.598,-50.781,77.148
1675199286.088,-50.781,-31.738,-34.180,-55.664,-229.980
1675199286.092,-32.227,-32.715,-29.297,-38.574,-87.402
1675199286.096,-19.531,-38.574,-38.086,-29.785,3.906
1675199286.100,-26.367,-40.039,-40.039,-35.645,-156.250
1675199286.102,-43.945,-37.598,-35.156,-48.340,-176.270
1675199286.106,-53.711,-38.086,-35.156,-56.152,-70.312
1675199286.110,-43.945,-43.457,-39.551,-52.734,-91.797
1675199286.114,-27.344,-46.875,-38.086,-40.527,-169.434
1675199286.118,-25.879,-40.039,-34.180,-28.809,-56.152
1675199286.122,-36.133,-32.227,-32.227,-30.273,47.363
1675199286.126,-37.598,-29.297,-32.715,-30.273,-88.379
1675199286.129,-24.902,-31.738,-31.250,-19.043,-165.527
1675199286.133,-1.953,-37.109,-27.344,-0.977,10.254
1675199286.137,-4.395,-33.203,-23.438,10.254,211.426
1675199286.141,-27.832,-31.250,-21.484,-12.207,-16.113
1675199286.145,-36.621,-35.645,-28.809,-32.227,-213.379
1675199286.148,-26.367,-37.598,-34.180,-30.273,-120.117
1675199286.152,-10.742,-36.621,-34.180,-25.391,17.578
1675199286.156,-14.648,-37.598,-39.062,-29.785,55.176
1675199286.160,-25.879,-39.551,-36.133,-38.086,-48.340
1675199286.164,-28.320,-34.180,-25.391,-41.016,21.484
1675199286.168,-27.344,-31.738,-29.785,-41.504,239.258
1675199286.172,-22.949,-38.086,-34.180,-38.574,173.828
1675199286.175,-23.438,-40.039,-38.086,-39.062,55.664
1675199286.179,-31.738,-34.668,-39.062,-42.480,156.250
1675199286.183,-46.875,-30.762,-39.062,-54.199,156.738
1675199286.187,-46.875,-30.762,-38.574,-61.035,-128.906
1675199286.191,-27.344,-33.691,-34.180,-39.551,-89.355
1675199286.192,-18.066,-32.227,-36.621,-22.949,-2.441
1675199286.196,-27.344,-29.297,-37.109,-30.273,-120.117
1675199286.200,-32.227,-31.738,-36.133,-40.527,-236.328
1675199286.204,-20.508,-30.762,-38.086,-37.109,-154.785
1675199286.208,-11.230,-32.227,-41.992,-24.414,0.488
1675199286.212,-5.859,-29.297,-38.574,-13.184,36.133
1675199286.216,-23.438,-28.809,-38.574,-30.273,20.020
1675199286.219,-43.945,-30.762,-39.551,-47.363,35.156
1675199286.223,-36.133,-27.832,-37.598,-35.645,245.605
1675199286.227,-34.180,-34.180,-46.387,-37.598,159.668
1675199286.231,-31.250,-35.645,-51.270,-36.133,-102.051
1675199286.235,-35.156,-29.297,-46.875,-34.180,-34.668
1675199286.237,-53.223,-32.715,-43.457,-51.758,-61.035
1675199286.241,-43.457,-32.227,-40.039,-50.293,-149.414
1675199286.245,-20.508,-31.250,-33.203,-32.227,-130.859
1675199286.249,-9.277,-30.762,-30.273,-18.555,102.051
1675199286.253,-17.090,-30.273,-35.156,-23.926,141.113
1675199286.257,-41.016,-36.133,-34.180,-49.316,-99.609
1675199286.261,-45.898,-35.645,-33.203,-54.199,-120.605
1675199286.264,-24.414,-33.203,-34.668,-31.738,199.219
1675199286.268,-7.324,-34.668,-32.227,-12.695,428.711
1675199286.272,-21.484,-37.598,-38.086,-26.367,65.430
1675199286.276,-39.062,-39.062,-36.621,-42.480,-136.719
1675199286.280,-42.969,-43.457,-30.273,-52.246,-115.723
1675199286.282,-39.062,-44.434,-31.738,-47.852,-143.066
1675199286.286,-24.902,-39.551,-40.527,-39.062,-79.590
1675199286.290,-19.043,-34.668,-38.086,-35.156,56.152
1675199286.294,-34.180,-32.715,-35.156,-41.016,52.734
1675199286.298,-38.574,-31.250,-42.480,-46.387,-80.078
1675199286.302,-20.508,-29.785,-41.992,-31.250,-97.168
1675199286.306,-7.812,-25.391,-32.227,-15.625,97.656
1675199286.309,-10.742,-27.832,-32.227,-6.836,343.750
1675199286.313,-39.551,-32.715,-37.109,-25.879,52.734
1675199286.317,-50.293,-28.320,-31.738,-42.969,-224.609
1675199286.321,-33.691,-32.715,-25.391,-33.203,-154.785
1675199286.325,-21.973,-42.480,-27.344,-21.484,6.348
1675199286.329,-19.531,-43.945,-30.762,-21.973,-75.195
1675199286.333,-37.109,-40.527,-26.367,-37.598,-205.078
1675199286.337,-45.898,-34.180,-20.508,-43.945,44.434
1675199286.341,-36.133,-30.273,-19.531,-40.039,227.539
1675199286.345,-27.832,-30.762,-30.762,-37.109,31.250
1675199286.349,-24.414,-27.832,-30.762,-34.180,13.184
1675199286.353,-34.180,-24.414,-27.832,-39.062,332.520
1675199286.356,-50.293,-28.809,-37.598,-52.734,299.805
1675199286.360,-45.898,-35.156,-43.945,-64.453,-148.438
1675199286.364,-23.926,-34.180,-41.992,-45.898,-160.645
1675199286.368,-21.973,-36.133,-40.039,-28.809,-44.922
1675199286.372,-33.691,-38.574,-37.109,-36.133,-69.824
1675199286.374,-46.875,-37.109,-32.715,-46.875,-196.289
1675199286.378,-40.039,-36.133,-29.297,-40.527,-171.387
1675199286.382,-24.414,-36.621,-25.391,-27.832,-17.090
1675199286.386,-25.391,-40.039,-30.762,-23.926,-64.453
1675199286.390,-35.645,-37.598,-31.738,-29.785,-128.418
1675199286.394,-42.969,-33.691,-26.855,-37.598,-23.926
1675199286.398,-37.598,-33.203,-26.367,-30.762,342.285
1675199286.401,-29.785,-39.551,-31.738,-31.250,235.352
1675199286.405,-18.066,-43.457,-36.133,-37.109,-111.816
1675199286.409,-19.531,-42.480,-30.762,-34.180,-10.742
1675199286.413,-37.598,-40.039,-29.297,-46.387,-5.859
1675199286.417,-45.898,-41.504,-33.691,-60.547,-116.699
1675199286.432,-36.133,-41.504,-33.691,-52.246,-153.809
1675199286.436,-18.066,-41.992,-41.016,-40.039,-33.691
1675199286.440,-22.461,-41.016,-41.992,-40.039,36.621
1675199286.444,-49.805,-44.434,-34.668,-52.246,-114.746
1675199286.448,-59.082,-42.969,-33.691,-58.594,-293.457
1675199286.452,-36.621,-35.645,-31.250,-37.109,30.762
1675199286.456,-19.531,-33.691,-26.855,-21.973,384.277
1675199286.459,-24.902,-35.645,-32.227,-39.062,144.043
1675199286.463,-41.016,-34.180,-37.598,-61.035,-92.285
1675199286.467,-53.711,-32.227,-35.645,-62.500,47.363
1675199286.471,-49.805,-40.039,-39.062,-63.477,73.730
1675199286.475,-32.715,-41.992,-41.992,-53.711,-154.297
1675199286.478,-22.461,-38.574,-41.504,-36.621,-90.820
1675199286.482,-38.086,-45.410,-38.574,-39.062,-36.133
1675199286.486,-57.617,-45.410,-33.203,-56.152,-175.293
1675199286.490,-48.828,-38.086,-35.156,-56.152,-232.910
1675199286.494,-25.879,-41.504,-36.621,-34.180,-108.887
1675199286.498,-21.973,-43.457,-35.156,-22.949,34.180
1675199286.502,-39.551,-38.574,-34.180,-33.203,5.859
1675199286.505,-43.945,-38.574,-26.367,-45.898,-115.234
1675199286.509,-27.832,-34.668,-20.996,-34.180,-16.602
1675199286.513,-12.207,-34.180,-25.391,-6.836,377.930
1675199286.517,-6.836,-33.691,-26.367,-0.977,225.586
1675199286.521,-25.879,-29.785,-32.227,-24.902,-105.957
1675199286.522,-41.504,-30.273,-33.203,-52.734,-136.719
1675199286.526,-36.133,-28.809,-29.297,-56.152,-162.109
1675199286.530,-26.855,-26.855,-37.598,-43.457,-95.215
1675199286.534,-20.996,-29.297,-37.598,-42.480,-137.207
1675199286.538,-29.785,-32.715,-36.621,-50.293,-20.020
1675199286.542,-44.434,-35.156,-36.133,-58.105,49.805
1675199286.546,-42.969,-36.621,-32.715,-67.871,-59.570
1675199286.549,-28.320,-37.109,-32.227,-66.406,-122.559
1675199286.553,-16.113,-32.227,-31.250,-52.246,111.328
1675199286.557,-26.367,-28.809,-34.180,-53.223,301.270
1675199286.561,-39.062,-30.762,-41.016,-74.219,-99.121
1675199286.565,-33.691,-27.832,-31.250,-65.430,-274.414
1675199286.567,-17.578,-27.344,-30.762,-45.410,-117.188
1675199286.571,-3.418,-29.785,-39.062,-31.738,-88.867
1675199286.575,-11.719,-33.691,-36.133,-35.156,-172.363
1675199286.579,-31.250,-33.203,-37.598,-52.734,-135.254
1675199286.583,-39.062,-31.250,-35.156,-56.641,-111.328
1675199286.587,-32.227,-41.504,-34.668,-48.828,-116.699
1675199286.591,-14.160,-44.434,-36.133,-37.109,-32.715
1675199286.594,-13.184,-41.504,-32.227,-35.156,104.492
1675199286.598,-35.645,-41.504,-38.574,-49.316,204.102
1675199286.602,-39.062,-38.574,-41.016,-59.082,-73.242
1675199286.606,-30.273,-39.551,-36.133,-49.805,-270.996
1675199286.610,-22.461,-39.551,-36.133,-35.156,-135.254
1675199286.612,-20.020,-36.621,-38.086,-40.039,-64.453
1675199286.616,-42.969,-34.180,-36.133,-62.500,-119.141
1675199286.620,-58.594,-34.668,-35.645,-71.289,-172.363
1675199286.624,-47.852,-37.598,-35.645,-62.500,87.891
1675199286.628,-27.832,-36.621,-35.156,-40.527,280.762
1675199286.632,-20.020,-35.156,-38.574,-27.832,29.297
1675199286.636,-30.273,-27.344,-34.180,-32.715,-2.930
1675199286.639,-44.922,-20.508,-28.809,-39.551,258.301
1675199286.643,-39.062,-29.297,-32.227,-37.598,169.922
1675199286.647,-22.949,-35.156,-38.086,-33.691,-177.734
1675199286.651,-16.113,-27.832,-35.156,-27.344,-101.074
1675199286.655,-23.926,-24.902,-34.180,-34.180,-7.324
1675199286.658,-28.320,-28.320,-40.527,-47.852,-91.309
1675199286.662,-18.066,-26.855,-37.598,-38.086,-222.168
1675199286.666,-1.465,-22.461,-32.227,-13.672,-163.086
1675199286.670,6.348,-21.484,-28.809,-1.953,-62.012
1675199286.674,-4.883,-19.043,-26.367,-9.766,-119.629
1675199286.678,-13.184,-13.672,-26.367,-17.090,-163.086
1675199286.682,-9.277,-16.113,-26.367,-14.648,0.977
1675199286.685,9.766,-20.020,-25.879,7.812,380.371
1675199286.689,11.719,-21.484,-29.785,13.184,257.812
1675199286.693,-14.648,-28.320,-32.227,-11.719,-76.172
1675199286.697,-31.250,-30.762,-30.273,-25.391,-134.766
1675199286.701,-32.715,-30.273,-35.645,-27.832,-161.621
1675199286.702,-27.832,-35.645,-38.574,-24.414,-141.602
1675199286.706,-27.344,-36.621,-35.156,-25.391,-102.539
1675199286.710,-25.879,-31.738,-30.273,-22.949,19.531
1675199286.714,-41.016,-30.762,-33.691,-41.504,-0.488
1675199286.718,-57.617,-36.621,-36.621,-61.035,-125.000
1675199286.722,-41.504,-39.062,-31.250,-46.387,-94.238
1675199286.726,-20.996,-34.180,-28.320,-23.926,212.402
1675199286.729,-32.227,-39.062,-31.250,-30.762,366.211
1675199286.733,-51.758,-39.551,-30.273,-57.617,-36.621
1675199286.737,-48.828,-31.250,-23.926,-59.082,-218.262
1675199286.741,-37.109,-33.691,-29.297,-50.293,-62.988
1675199286.745,-15.137,-36.621,-35.645,-38.574,-46.875
1675199286.749,-15.625,-36.621,-33.203,-38.086,-135.254
1675199286.753,-37.598,-34.180,-31.738,-51.758,-125.000
1675199286.757,-44.434,-31.738,-25.391,-58.105,-102.539
1675199286.761,-41.504,-37.598,-21.973,-52.734,-185.547
1675199286.765,-31.738,-46.875,-21.973,-37.598,-213.379
1675199286.769,-28.320,-45.898,-19.531,-29.785,91.797
1675199286.773,-50.781,-37.598,-23.438,-55.176,269.531
1675199286.776,-68.359,-33.203,-30.273,-81.543,-60.059
1675199286.780,-61.035,-29.297,-28.320,-70.801,-196.777
1675199286.784,-44.434,-26.855,-20.996,-57.129,-43.945
1675199286.788,-46.387,-29.297,-18.066,-58.105,-0.488
1675199286.792,-65.918,-34.668,-21.973,-67.871,-174.316
1675199286.808,-77.148,-36.621,-30.273,-84.961,-247.559
1675199286.812,-68.848,-30.762,-32.715,-83.008,-92.285
1675199286.816,-51.270,-24.414,-30.762,-61.523,20.508
1675199286.820,-41.504,-23.438,-29.297,-57.129,-73.242
1675199286.824,-55.176,-29.785,-28.320,-67.871,-147.461
1675199286.828,-65.918,-34.668,-27.344,-67.383,153.809
1675199286.832,-56.152,-30.273,-27.344,-59.570,500.000
1675199286.835,-47.363,-33.691,-30.762,-64.453,109.375
1675199286.839,-46.387,-35.645,-29.785,-63.965,-189.453
1675199286.843,-59.082,-29.785,-20.508,-65.918,-129.395
1675199286.847,-69.824,-28.320,-19.531,-71.777,-192.871
1675199286.851,-49.805,-26.855,-19.043,-58.594,-228.027
1675199286.852,-21.973,-22.461,-20.508,-41.504,-145.020
1675199286.856,-10.742,-20.996,-30.273,-39.062,-98.145
1675199286.860,-11.719,-19.043,-26.367,-41.992,-98.145
1675199286.864,-31.738,-16.113,-20.508,-49.805,-205.566
1675199286.868,-31.738,-15.625,-23.926,-45.410,-124.512
1675199286.872,-4.395,-18.066,-26.367,-20.020,36.133
1675199286.876,-6.836,-25.879,-30.273,-21.973,28.320
1675199286.879,-30.273,-28.320,-39.062,-47.363,-46.387
1675199286.883,-33.691,-25.879,-38.086,-49.805,-31.250
1675199286.887,-35.645,-23.926,-25.879,-45.410,218.262
1675199286.891,-30.273,-26.367,-26.855,-44.922,-7.324
1675199286.895,-15.625,-31.738,-28.809,-28.320,-136.719
1675199286.897,-19.531,-31.250,-27.832,-38.086,-40.039
1675199286.901,-38.086,-28.320,-33.691,-60.059,-143.066
1675199286.905,-45.898,-29.297,-33.691,-56.152,-167.480
1675199286.909,-21.973,-32.715,-33.203,-44.434,-189.941
1675199286.913,-7.324,-32.715,-33.691,-24.414,27.344
1675199286.917,-15.137,-27.344,-40.039,-21.484,207.031
1675199286.921,-25.879,-18.555,-35.156,-35.645,-2.930
1675199286.924,-25.879,-19.531,-26.367,-40.527,-184.570
1675199286.928,-9.766,-23.926,-28.809,-20.508,84.961
1675199286.932,-0.977,-25.879,-34.180,-2.930,334.961
1675199286.936,-7.812,-27.344,-32.227,-9.277,-0.977
1675199286.940,-17.090,-26.367,-28.320,-18.066,-102.539
1675199286.942,-23.438,-27.832,-37.109,-22.461,-99.609
1675199286.946,-17.578,-30.762,-42.969,-19.043,-155.762
1675199286.950,-3.906,-31.250,-39.551,-12.207,-152.344
1675199286.954,-4.883,-34.180,-36.621,-6.836,-128.418
1675199286.958,-21.484,-38.574,-38.574,-23.438,-84.961
1675199286.962,-28.320,-34.668,-37.598,-34.180,-41.992
1675199286.966,-20.996,-35.645,-38.086,-24.414,-163.086
1675199286.969,-3.906,-36.621,-31.738,-8.301,-63.965
1675199286.973,1.465,-36.621,-31.250,-0.977,253.906
1675199286.977,-23.926,-37.109,-40.527,-22.949,62.988
1675199286.981,-33.691,-27.344,-38.574,-41.992,-186.523
1675199286.985,-21.973,-21.484,-31.250,-35.156,-113.770
1675199286.988,-13.184,-22.461,-34.180,-24.902,-40.039
1675199286.992,0.488,-20.508,-37.598,-20.020,-109.375
1675199286.996,-9.766,-19.043,-33.691,-24.902,-149.414
1675199287.000,-29.785,-20.020,-28.809,-26.855,44.434
1675199287.004,-32.227,-27.344,-34.180,-30.273,53.711
1675199287.008,-18.555,-31.250,-43.945,-28.320,-161.621
1675199287.012,-12.695,-26.367,-42.480,-23.438,-87.402
1675199287.015,-28.320,-28.320,-38.574,-29.785,158.691
1675199287.019,-37.598,-30.273,-39.551,-39.551,142.578
1675199287.023,-31.250,-28.320,-44.434,-43.945,-224.121
1675199287.027,-12.695,-30.273,-43.457,-25.391,-201.172
1675199287.031,3.906,-27.832,-37.598,-12.695,-50.781
1675199287.033,0.000,-23.926,-37.598,-20.020,-140.625
1675199287.037,-20.996,-25.879,-41.504,-35.156,-267.090
1675199287.041,-18.066,-25.391,-36.621,-36.133,-144.531
1675199287.045,-2.930,-24.414,-36.133,-27.344,-24.414
1675199287.049,-1.953,-25.391,-41.016,-23.926,-64.941
1675199287.053,-9.277,-23.926,-38.574,-23.438,-30.273
1675199287.057,-23.438,-24.414,-38.574,-37.109,84.961
1675199287.060,-34.668,-25.879,-34.180,-42.969,269.531
1675199287.064,-31.250,-27.344,-38.574,-32.715,58.105
1675199287.068,-24.902,-32.227,-45.410,-26.855,-158.691
1675199287.072,-29.297,-35.156,-41.016,-28.320,-58.105
1675199287.076,-42.969,-32.715,-35.645,-39.062,-120.117
1675199287.077,-49.805,-29.785,-31.738,-42.480,-218.750
1675199287.081,-38.086,-29.785,-36.133,-32.227,-241.211
1675199287.085,-19.531,-33.203,-38.574,-16.113,11.719
1675199287.089,-20.508,-31.738,-37.109,-24.902,93.262
1675199287.093,-35.156,-27.832,-42.969,-48.340,-181.641
1675199287.097,-40.527,-27.344,-51.758,-47.852,-234.863
1675199287.101,-22.461,-28.809,-50.781,-34.668,57.129
1675199287.104,2.441,-29.785,-40.527,-13.184,282.227
1675199287.108,-0.488,-25.391,-39.551,-6.348,-25.879
1675199287.112,-8.301,-22.461,-38.086,-16.113,-202.148
1675199287.116,-10.254,-22.949,-27.344,-25.391,-137.207
1675199287.120,-3.418,-20.996,-23.926,-19.043,-154.785
1675199287.124,6.836,-21.973,-23.926,-10.254,-213.379
1675199287.128,-5.859,-28.809,-28.809,-15.625,-152.832
1675199287.132,-27.832,-31.250,-32.715,-30.273,-97.168
1675199287.136,-37.109,-30.273,-27.832,-40.039,-191.895
1675199287.140,-23.926,-32.227,-27.832,-33.691,-252.441
1675199287.144,-8.301,-33.203,-23.926,-20.996,29.785
1675199287.148,-4.883,-33.203,-23.926,-11.719,291.992
1675199287.151,-14.160,-35.156,-30.273,-23.926,22.949
1675199287.155,-35.156,-36.621,-38.574,-42.969,-229.004
1675199287.159,-37.598,-39.062,-37.598,-38.086,-69.824
1675199287.163,-22.461,-42.480,-33.203,-24.414,107.422
1675199287.167,-24.414,-45.410,-39.551,-27.344,-80.078
1675199287.182,-39.551,-41.504,-35.156,-35.645,-188.477
1675199287.186,-55.664,-34.668,-31.250,-49.316,-130.859
1675199287.190,-48.828,-32.715,-28.809,-46.875,-74.707
1675199287.194,-31.738,-35.645,-33.691,-37.598,-142.090
1675199287.198,-28.320,-38.574,-41.992,-33.691,-215.820
1675199287.202,-22.949,-38.086,-31.250,-16.113,160.645
1675199287.206,-32.227,-37.109,-23.438,-15.625,360.840
1675199287.209,-37.109,-34.668,-29.297,-35.645,-129.395
1675199287.213,-14.648,-30.762,-31.250,-28.320,-314.453
1675199287.217,0.488,-31.250,-29.297,-12.207,-68.359
1675199287.221,-2.441,-28.320,-25.879,-11.719,-12.207
1675199287.225,-17.090,-26.855,-25.391,-29.785,-158.203
1675199287.215,-22.949,-31.250,-22.461,-38.086,-111.328
1675199287.219,-14.648,-38.574,-24.902,-35.156,24.414
1675199287.223,-12.207,-42.480,-31.250,-39.551,-9.766
1675199287.227,-18.555,-35.156,-34.180,-45.410,-125.488
1675199287.231,-33.203,-26.367,-30.762,-59.082,-183.594
1675199287.235,-47.852,-32.715,-32.227,-77.637,-159.668
1675199287.239,-40.039,-37.109,-35.645,-71.289,-129.883
1675199287.242,-21.484,-36.133,-33.203,-61.035,-145.020
1675199287.246,-28.320,-34.180,-27.832,-59.570,-12.695
1675199287.250,-54.199,-31.738,-23.926,-69.824,162.598
1675199287.254,-66.406,-38.086,-23.926,-81.543,-117.676
1675199287.258,-51.758,-39.551,-30.762,-77.148,-261.230
1675199287.272,-31.250,-34.668,-33.203,-65.918,-14.160
1675199287.276,-24.414,-34.180,-30.762,-51.270,1.465
1675199287.280,-34.668,-36.621,-29.785,-49.805,-73.242
1675199287.284,-39.062,-32.715,-29.297,-59.082,-134.277
1675199287.288,-25.391,-36.621,-29.785,-53.711,19.531
1675199287.292,-15.137,-39.062,-28.320,-38.574,255.859
1675199287.296,-17.090,-33.203,-31.738,-41.992,76.660
1675199287.299,-27.832,-35.156,-36.621,-54.199,-144.531
1675199287.303,-41.992,-35.645,-35.156,-48.828,-61.523
1675199287.307,-40.039,-32.227,-34.668,-45.410,-12.207
1675199287.311,-24.902,-33.203,-43.457,-44.922,-185.547
1675199287.315,-12.207,-34.180,-36.133,-31.250,-151.855
1675199287.317,-35.645,-34.668,-24.414,-34.180,-125.000
1675199287.321,-63.965,-36.621,-30.762,-48.340,-203.125
1675199287.325,-60.059,-38.086,-34.180,-57.129,-249.023
1675199287.329,-43.457,-36.621,-33.691,-48.828,-151.855
1675199287.333,-35.156,-38.086,-31.738,-39.062,-70.801
1675199287.337,-42.480,-41.992,-31.250,-43.457,-61.523
1675199287.341,-50.293,-40.039,-26.855,-50.293,-85.449
1675199287.344,-42.969,-38.574,-26.855,-42.480,-25.879
1675199287.348,-26.367,-39.062,-34.180,-26.367,257.324
1675199287.352,-31.250,-41.504,-42.969,-30.762,100.586
1675199287.356,-49.316,-43.457,-45.410,-49.805,-208.008
1675199287.360,-56.641,-38.574,-38.086,-56.152,-170.410
1675199287.362,-53.711,-36.133,-44.434,-57.129,-214.844
1675199287.366,-39.062,-37.598,-49.316,-42.480,-253.418
1675199287.370,-20.508,-32.227,-42.969,-24.414,-41.992
1675199287.374,-20.996,-30.762,-40.039,-22.461,230.957
1675199287.378,-36.621,-33.203,-38.574,-30.273,152.832
1675199287.382,-41.504,-33.203,-36.133,-34.668,-95.703
1675199287.386,-29.785,-32.715,-36.621,-35.156,-136.230
1675199287.389,-12.207,-34.180,-30.273,-20.996,142.090
1675199287.393,-13.184,-39.062,-27.344,-22.949,186.035
1675199287.397,-34.668,-39.062,-33.691,-52.734,-183.105
1675199287.401,-40.039,-36.621,-30.273,-58.105,-247.070
1675199287.405,-31.738,-42.480,-32.715,-49.316,-76.660
1675199287.409,-17.578,-43.457,-38.086,-34.668,-62.012
1675199287.413,-11.230,-37.598,-30.273,-32.715,-55.664
1675199287.417,-27.344,-31.738,-26.367,-47.852,-37.109
1675199287.421,-41.016,-33.203,-30.762,-59.082,-117.188
1675199287.425,-31.250,-37.109,-34.668,-60.547,-173.340
1675199287.429,-12.695,-37.598,-38.086,-51.270,-80.566
1675199287.433,-7.324,-33.203,-29.297,-41.992,111.816
1675199287.436,-19.531,-30.273,-25.391,-51.270,212.891
1675199287.440,-35.645,-34.668,-32.227,-66.406,-109.375
1675199287.444,-29.785,-31.738,-31.250,-65.430,-273.438
1675199287.448,-4.883,-25.391,-24.902,-51.270,-151.855
1675199287.452,1.953,-28.320,-28.320,-42.969,-102.539
1675199287.452,-18.066,-26.855,-34.668,-50.293,-167.969
1675199287.456,-26.367,-23.438,-32.715,-61.035,-240.723
1675199287.460,-12.695,-29.297,-32.227,-50.781,-48.340
1675199287.464,-7.324,-28.809,-33.691,-38.574,30.273
1675199287.468,-7.812,-23.926,-32.227,-34.180,-84.961
1675199287.472,-15.137,-23.438,-26.855,-36.133,-83.496
1675199287.476,-29.785,-27.344,-17.578,-51.270,123.535
1675199287.479,-34.180,-31.738,-22.949,-55.664,361.816
1675199287.483,-27.832,-32.715,-37.109,-54.199,-1.953
1675199287.487,-24.414,-33.691,-34.668,-49.805,-201.172
1675199287.491,-38.574,-32.227,-26.367,-52.734,-112.305
1675199287.495,-51.270,-29.785,-24.902,-63.477,-153.320
1675199287.499,-49.316,-36.621,-31.250,-68.359,-225.098
1675199287.503,-30.762,-38.086,-26.855,-55.176,-164.062
1675199287.507,-19.531,-35.645,-24.414,-43.457,-28.809
1675199287.511,-34.668,-43.457,-35.645,-55.664,-69.336
1675199287.515,-43.945,-40.039,-33.691,-67.871,-169.434
1675199287.519,-42.969,-30.273,-28.809,-63.477,-31.250
1675199287.523,-29.785,-32.227,-32.227,-51.270,177.734
1675199287.526,-11.719,-34.180,-32.227,-45.410,38.086
1675199287.530,-25.391,-36.621,-27.832,-49.316,-135.254
1675199287.534,-40.527,-34.668,-23.438,-56.641,-37.109
1675199287.538,-28.809,-26.367,-23.926,-62.012,141.113
1675199287.542,-14.648,-25.879,-27.344,-59.082,-36.133
1675199287.557,1.465,-27.344,-28.809,-43.457,-114.258
1675199287.561,-0.488,-24.902,-24.902,-40.527,-46.875
1675199287.565,-15.625,-24.902,-24.414,-51.758,-58.105
1675199287.569,-27.832,-29.785,-31.738,-57.617,-155.762
1675199287.573,-28.320,-32.227,-36.621,-57.129,-208.496
1675199287.577,-7.324,-26.855,-26.367,-37.109,156.250
1675199287.581,-7.812,-25.391,-21.973,-27.832,432.129
1675199287.584,-39.062,-27.344,-30.762,-52.734,-15.625
1675199287.588,-51.270,-25.879,-31.250,-62.988,-168.945
1675199287.592,-36.133,-26.855,-28.320,-58.594,59.570
1675199287.596,-24.902,-33.203,-35.645,-54.199,2.930
1675199287.600,-34.180,-36.133,-38.574,-64.453,-149.414
1675199287.602,-51.758,-30.762,-32.715,-75.195,-159.180
1675199287.606,-56.152,-32.715,-35.645,-85.938,-185.547
1675199287.610,-49.316,-38.086,-36.621,-92.773,-236.328
1675199287.614,-32.715,-32.715,-32.227,-71.777,-190.430
1675199287.618,-20.508,-26.855,-28.320,-59.082,-65.430
1675199287.622,-27.344,-26.367,-27.344,-59.570,24.902
1675199287.626,-41.504,-29.785,-34.180,-63.965,-97.656
1675199287.629,-32.227,-29.785,-39.551,-67.383,-184.570
1675199287.633,-6.348,-25.879,-36.133,-44.434,14.160
1675199287.637,1.465,-20.020,-32.715,-22.461,338.379
1675199287.641,-20.020,-21.973,-35.156,-40.039,110.840
1675199287.645,-36.133,-25.391,-37.109,-57.617,-232.910
1675199287.647,-24.414,-20.508,-34.180,-48.340,-101.074
1675199287.651,-7.812,-28.809,-34.668,-40.527,-46.387
1675199287.655,-7.324,-38.086,-37.109,-39.062,-99.121
1675199287.659,-22.949,-33.203,-39.062,-49.316,-114.258
1675199287.663,-37.598,-29.297,-31.738,-55.664,-54.688
1675199287.667,-38.086,-29.297,-21.484,-57.617,19.531
1675199287.671,-25.391,-29.785,-28.809,-57.617,-47.852
1675199287.674,-20.020,-28.809,-34.668,-48.828,-54.199
1675199287.678,-28.320,-30.762,-32.227,-51.270,176.270
1675199287.682,-48.828,-40.039,-35.645,-69.824,197.754
1675199287.686,-58.594,-42.969,-39.551,-84.961,-190.430
1675199287.690,-43.945,-36.133,-39.062,-73.242,-131.348
1675199287.692,-25.879,-37.598,-41.016,-51.758,172.852
1675199287.696,-27.344,-36.621,-40.039,-55.176,66.895
1675199287.700,-49.316,-29.297,-42.480,-75.195,-200.684
1675199287.704,-56.152,-24.902,-46.387,-78.613,-140.137
1675199287.708,-45.410,-26.367,-41.504,-65.918,-37.109
1675199287.712,-26.367,-29.297,-37.109,-59.082,-63.965
1675199287.716,-28.809,-30.273,-41.016,-60.547,-33.691
1675199287.719,-44.922,-27.344,-39.551,-63.965,45.898
1675199287.723,-45.410,-26.855,-35.156,-71.289,101.562
1675199287.727,-35.156,-30.273,-36.621,-67.871,-71.289
1675199287.731,-24.902,-27.832,-35.645,-48.340,-177.734
1675199287.735,-20.508,-27.832,-35.156,-42.969,-14.160
1675199287.737,-31.738,-28.320,-31.738,-56.152,-38.574
1675199287.741,-53.711,-28.320,-26.367,-63.965,-157.227
1675199287.745,-40.039,-32.227,-26.367,-60.547,-125.000
1675199287.749,-24.414,-40.039,-31.250,-43.457,72.266
1675199287.753,-29.785,-43.457,-36.133,-44.434,145.996
1675199287.757,-44.922,-42.480,-36.133,-64.453,-76.172
1675199287.761,-55.176,-39.551,-41.016,-75.195,-166.992
1675199287.764,-36.621,-41.016,-32.715,-62.012,167.480
1675199287.768,-16.602,-40.039,-24.902,-42.969,378.906
1675199287.772,-23.926,-36.621,-35.645,-49.316,26.367
1675199287.776,-33.691,-32.715,-38.086,-54.199,-104.004
1675199287.780,-33.203,-29.785,-34.668,-60.059,-59.082
1675199287.783,-33.203,-31.250,-34.668,-64.453,-109.863
1675199287.787,-19.043,-26.855,-34.668,-56.152,-140.625
1675199287.791,-8.301,-20.996,-35.156,-52.246,-64.453
1675199287.795,-27.832,-20.996,-41.016,-61.523,-85.449
1675199287.799,-44.922,-25.879,-38.086,-65.918,-119.629
1675199287.803,-39.062,-34.180,-38.086,-62.500,-90.820
1675199287.807,-24.414,-34.668,-40.527,-46.387,66.895
1675199287.810,-11.230,-27.344,-31.738,-26.855,336.426
1675199287.814,-16.113,-28.320,-29.785,-33.203,115.723
1675199287.818,-30.273,-34.180,-34.668,-41.016,-162.109
1675199287.822,-27.832,-31.738,-29.785,-35.645,-60.059
1675199287.826,-9.766,-35.645,-35.156,-34.668,-69.824
1675199287.827,-3.906,-35.156,-40.039,-31.250,-199.219
1675199287.831,-16.602,-29.785,-34.180,-34.180,-147.461
1675199287.835,-28.320,-30.762,-32.227,-40.527,56.641
1675199287.839,-31.250,-26.855,-34.668,-45.410,28.809
1675199287.843,-25.879,-23.926,-31.250,-42.969,-154.785
1675199287.847,-18.066,-20.508,-31.250,-20.020,-116.211
1675199287.851,-20.020,-19.531,-29.785,-17.090,203.613
1675199287.854,-39.062,-22.461,-24.414,-30.273,315.430
1675199287.858,-54.199,-25.879,-30.273,-42.969,-97.168
1675199287.862,-43.945,-32.227,-34.668,-40.039,-178.223
1675199287.866,-21.973,-32.715,-30.273,-18.066,-140.625
1675199287.870,-19.043,-28.320,-28.809,-10.742,-119.141
1675199287.875,-35.645,-23.926,-27.344,-25.879,-186.523
1675199287.879,-40.527,-23.438,-27.344,-33.203,-220.703
1675199287.883,-34.668,-28.809,-27.344,-23.438,-42.969
1675199287.887,-24.902,-39.551,-32.715,-18.555,29.297
1675199287.891,-22.461,-40.039,-40.039,-18.066,-62.988
1675199287.895,-31.738,-36.133,-31.250,-23.438,27.344
1675199287.899,-31.250,-33.691,-27.832,-24.414,145.508
1675199287.902,-22.949,-32.227,-36.133,-17.578,-62.988
1675199287.906,-10.742,-31.250,-34.668,-6.348,-190.430
1675199287.910,-3.418,-25.879,-27.832,5.371,-34.180
1675199287.914,-8.301,-24.414,-22.949,4.395,32.227
1675199287.918,-27.832,-30.273,-32.715,-19.531,-181.641
1675199287.932,-29.297,-32.227,-38.086,-23.438,-246.582
1675199287.936,-9.277,-29.785,-31.250,0.488,-169.922
1675199287.940,-14.160,-30.762,-31.738,-2.441,-73.242
1675199287.944,-29.297,-32.715,-32.715,-21.973,-35.156
1675199287.948,-40.039,-32.715,-34.180,-32.715,-83.496
1675199287.952,-35.645,-34.180,-35.645,-32.227,103.027
1675199287.956,-13.672,-29.297,-29.785,-10.254,568.848
1675199287.959,-12.207,-30.273,-32.715,-12.695,348.145
1675199287.963,-27.344,-31.738,-39.062,-32.715,-105.957
1675199287.967,-41.504,-28.809,-31.738,-53.711,-147.461
1675199287.971,-43.457,-30.762,-31.250,-56.152,-208.008
1675199287.975,-27.832,-33.691,-36.621,-31.738,-199.707
1675199287.977,-22.949,-35.156,-30.762,-28.809,-104.492
1675199287.981,-35.156,-27.832,-29.785,-41.016,-51.270
1675199287.985,-51.758,-27.832,-32.715,-51.270,-62.988
1675199287.989,-49.316,-31.250,-26.855,-54.688,-140.137
1675199287.993,-28.809,-27.344,-28.320,-43.457,-110.840
1675199287.997,-17.090,-26.855,-31.250,-34.180,71.289
1675199288.001,-31.738,-27.832,-29.785,-45.898,118.164
1675199288.004,-48.828,-28.320,-35.156,-63.965,-27.344
1675199288.008,-46.387,-33.203,-30.762,-69.336,4.395
1675199288.012,-27.344,-35.156,-21.973,-48.340,362.793
1675199288.016,-18.066,-38.086,-27.344,-41.016,241.211
1675199288.020,-27.832,-38.086,-31.250,-58.105,-169.922
1675199288.022,-41.504,-37.598,-33.691,-71.289,-155.273
1675199288.026,-42.969,-37.109,-38.574,-77.148,-165.039
1675199288.030,-26.367,-32.715,-36.133,-59.570,-171.875
1675199288.034,-12.695,-31.738,-37.598,-41.504,-109.375
1675199288.038,-16.602,-32.227,-38.086,-37.598,93.750
1675199288.042,-31.738,-33.691,-29.785,-44.434,156.738
1675199288.046,-38.574,-34.668,-29.785,-60.547,-145.996
1675199288.049,-31.250,-33.203,-37.109,-67.871,-239.258
1675199288.053,-19.531,-34.668,-36.133,-51.270,120.117
1675199288.057,-25.391,-31.738,-32.715,-41.016,249.023
1675199288.061,-41.504,-29.297,-40.039,-55.176,-115.723
1675199288.065,-48.340,-33.203,-37.109,-65.430,-168.945
1675199288.067,-47.852,-40.039,-35.645,-61.523,-104.492
1675199288.071,-34.180,-41.504,-34.180,-49.316,-80.566
1675199288.075,-32.715,-37.109,-32.715,-53.223,-107.910
1675199288.079,-41.504,-36.621,-36.133,-66.895,-131.836
1675199288.083,-48.340,-36.133,-36.133,-76.172,-129.883
1675199288.087,-37.598,-30.762,-35.156,-68.848,-108.887
1675199288.091,-14.648,-29.297,-41.016,-54.688,-79.102
1675199288.094,-11.230,-29.297,-43.457,-49.316,53.711
1675199288.098,-24.902,-24.414,-34.180,-50.781,212.402
1675199288.102,-41.016,-30.273,-34.668,-71.777,-60.059
1675199288.106,-36.621,-36.621,-36.621,-79.590,-244.141
1675199288.110,-24.902,-36.621,-37.598,-66.406,-59.570
1675199288.112,-22.461,-33.203,-40.039,-60.059,32.227
1675199288.116,-23.926,-26.367,-34.180,-53.223,-108.887
1675199288.120,-38.574,-27.344,-33.691,-62.988,-151.855
1675199288.124,-38.574,-30.762,-32.227,-62.012,107.422
1675199288.128,-19.531,-31.250,-29.297,-44.434,218.750
1675199288.132,-26.855,-33.203,-33.691,-47.363,108.398
1675199288.136,-38.086,-27.832,-27.832,-53.223,33.203
1675199288.139,-44.434,-24.902,-24.902,-57.129,74.707
1675199288.143,-50.293,-25.879,-35.156,-64.941,113.770
1675199288.147,-34.180,-28.809,-37.109,-62.012,-152.832
1675199288.151,-12.207,-32.715,-31.250,-46.875,-114.746
1675199288.155,-24.902,-31.250,-31.250,-47.852,-90.820
1675199288.157,-48.340,-31.738,-30.273,-62.012,-188.477
1675199288.161,-50.293,-29.785,-28.809,-72.754,-225.586
1675199288.165,-32.715,-27.832,-32.227,-55.664,-124.512
1675199288.169,-11.230,-25.879,-25.391,-32.227,-41.504
1675199288.173,-12.695,-23.438,-23.926,-42.969,-95.215
1675199288.177,-23.438,-19.043,-30.762,-59.570,-100.586
1675199288.181,-24.414,-19.043,-29.297,-62.500,-44.434
1675199288.184,-12.695,-24.414,-31.250,-45.410,374.512
1675199288.188,-1.465,-25.391,-36.621,-34.180,333.008
1675199288.192,-14.160,-29.297,-36.621,-45.898,-81.055
1675199288.196,-30.273,-29.785,-33.203,-56.152,-60.059
1675199288.200,-39.062,-27.344,-33.691,-62.500,-45.898
1675199288.202,-34.668,-31.250,-36.621,-54.688,-72.754
1675199288.206,-25.391,-33.691,-37.598,-42.969,-71.777
1675199288.210,-30.762,-35.645,-34.668,-42.480,108.398
1675199288.214,-46.875,-38.574,-35.156,-59.570,85.449
1675199288.218,-50.293,-37.109,-33.203,-67.383,-150.879
1675199288.222,-29.297,-31.250,-32.715,-56.641,-135.742
1675199288.226,-9.277,-30.273,-30.273,-40.039,192.383
1675199288.229,-7.812,-31.250,-29.297,-30.762,336.426
1675199288.233,-23.926,-35.156,-32.715,-56.152,-89.844
1675199288.237,-28.320,-31.738,-33.203,-66.406,-221.191
1675199288.241,-16.113,-22.949,-34.668,-50.781,-97.168
1675199288.245,-5.859,-29.297,-34.668,-38.574,-102.051
1675199288.249,-6.836,-33.691,-33.203,-37.109,-107.910
1675199288.253,-21.973,-25.391,-29.785,-44.434,-57.617
1675199288.257,-35.156,-23.926,-27.344,-57.129,-90.820
1675199288.261,-31.738,-29.297,-26.855,-57.617,-165.527
1675199288.265,-24.414,-33.691,-31.738,-48.828,-183.105
1675199288.269,-21.973,-33.691,-35.645,-38.086,-14.160
1675199288.273,-34.180,-34.180,-37.598,-45.898,148.926
1675199288.276,-51.270,-37.598,-37.598,-73.242,-61.523
1675199288.280,-45.898,-35.645,-31.738,-68.848,-303.223
1675199288.284,-24.414,-34.180,-36.133,-50.293,-101.562
1675199288.288,-24.414,-37.598,-40.527,-45.410,-8.301
1675199288.292,-43.945,-40.527,-41.016,-59.082,-195.801
1675199288.293,-56.152,-41.504,-33.203,-66.895,-157.715
1675199288.297,-49.316,-38.086,-28.320,-52.734,-10.742
1675199288.301,-34.180,-36.133,-29.297,-37.598,76.172
1675199288.305,-26.855,-35.645,-29.297,-35.645,4.883
1675199288.309,-28.320,-32.227,-26.855,-39.062,-37.598
1675199288.313,-35.645,-32.227,-28.809,-38.086,196.289
1675199288.317,-31.738,-30.762,-30.273,-38.574,371.582
1675199288.320,-21.973,-33.691,-34.668,-39.551,42.480
1675199288.324,-8.301,-33.691,-37.109,-26.855,-152.832
1675199288.328,-15.137,-26.855,-31.738,-29.297,-18.066
1675199288.332,-48.340,-27.344,-36.621,-59.082,-56.152
1675199288.336,-51.758,-22.461,-36.133,-74.219,-228.027
1675199288.352,-38.574,-17.578,-31.738,-67.383,-186.523
1675199288.356,-28.809,-23.926,-35.156,-58.594,-75.195
1675199288.360,-34.668,-29.785,-29.785,-59.570,-144.043
1675199288.364,-58.105,-30.273,-27.832,-78.125,-200.195
1675199288.368,-62.012,-31.738,-26.855,-86.426,-54.199
1675199288.372,-50.781,-35.645,-24.902,-78.125,132.812
1675199288.376,-37.109,-31.250,-33.691,-72.266,96.680
1675199288.379,-48.828,-30.273,-37.109,-81.543,-69.824
1675199288.383,-65.918,-35.156,-32.715,-84.473,27.344
1675199288.387,-64.453,-29.785,-28.320,-78.125,164.062
1675199288.391,-61.035,-28.809,-29.297,-79.590,-59.570
1675199288.395,-57.129,-35.156,-30.762,-80.078,-113.281
1675199288.397,-55.176,-29.785,-29.785,-80.566,-29.785
1675199288.401,-64.453,-23.926,-25.879,-87.891,-53.223
1675199288.405,-71.777,-25.391,-24.414,-94.238,-116.699
1675199288.409,-58.594,-25.879,-28.320,-83.984,-187.988
1675199288.413,-39.551,-29.297,-27.344,-59.570,39.551
1675199288.417,-38.086,-30.762,-24.414,-57.617,192.383
1675199288.421,-58.594,-26.855,-22.461,-76.172,-20.508
1675199288.424,-72.266,-25.879,-26.855,-88.379,-107.422
1675199288.428,-63.965,-25.391,-30.762,-84.473,89.355
1675199288.432,-50.781,-33.203,-20.996,-65.918,241.699
1675199288.436,-52.734,-39.062,-27.832,-79.102,1.465
1675199288.440,-61.523,-30.762,-34.668,-93.262,-114.258
1675199288.442,-68.359,-25.879,-23.438,-84.473,-131.836
1675199288.446,-70.312,-25.879,-25.879,-84.961,-175.781
1675199288.450,-50.781,-24.902,-26.855,-81.055,-208.496
1675199288.454,-27.832,-20.508,-30.762,-63.965,-123.047
1675199288.458,-35.645,-20.020,-29.785,-60.059,-17.578
1675199288.462,-52.246,-22.949,-21.484,-65.918,4.883
1675199288.466,-45.410,-26.855,-23.926,-62.500,-65.430
1675199288.469,-28.809,-31.738,-26.367,-53.223,-12.695
1675199288.473,-20.996,-28.320,-23.438,-43.945,242.676
1675199288.477,-25.391,-21.973,-20.020,-45.898,25.879
1675199288.481,-47.852,-22.949,-27.344,-70.312,-245.605
1675199288.485,-57.129,-20.996,-33.203,-81.055,-83.008
1675199288.487,-34.180,-21.484,-33.691,-64.941,23.438
1675199288.491,-24.902,-30.762,-38.086,-59.082,-138.184
1675199288.495,-37.109,-33.203,-35.645,-65.918,-91.309
1675199288.499,-38.574,-34.180,-31.250,-58.105,119.629
1675199288.503,-35.156,-32.715,-28.320,-50.781,-23.926
1675199288.507,-37.109,-35.645,-31.250,-54.199,-210.938
1675199288.511,-23.926,-39.062,-33.203,-41.992,-106.934
1675199288.514,-21.484,-33.203,-27.832,-35.156,160.645
1675199288.518,-49.316,-26.855,-28.809,-55.664,164.062
1675199288.522,-62.012,-30.273,-41.504,-73.242,-181.641
1675199288.526,-37.109,-31.738,-43.457,-54.199,-210.449
1675199288.530,-22.949,-27.832,-36.133,-52.734,-115.723
1675199288.534,-18.066,-26.367,-36.621,-51.758,-97.656
1675199288.538,-24.414,-29.785,-34.668,-46.875,-168.945
1675199288.542,-36.133,-29.785,-33.203,-66.895,-122.070
1675199288.546,-21.484,-28.320,-40.527,-61.523,-23.438
1675199288.550,-5.859,-29.785,-38.086,-40.039,-39.062
1675199288.554,-12.695,-27.344,-30.762,-40.039,-19.531
1675199288.558,-23.926,-24.414,-33.691,-54.688,99.609
1675199288.561,-29.297,-24.414,-40.527,-51.270,316.406
1675199288.565,-38.086,-30.762,-42.480,-53.223,144.531
1675199288.569,-33.203,-35.645,-44.434,-46.875,-114.746
1675199288.573,-23.926,-32.227,-43.945,-32.227,6.836
1675199288.577,-33.691,-32.227,-38.574,-39.062,-13.184
1675199288.577,-46.875,-34.668,-38.086,-46.875,-155.762
1675199288.581,-37.109,-32.715,-34.668,-39.551,-219.727
1675199288.585,-9.277,-31.738,-35.645,-22.949,43.457
1675199288.589,-9.277,-31.738,-41.992,-24.902,119.629
1675199288.593,-24.902,-27.344,-36.133,-39.062,-79.590
1675199288.597,-30.273,-25.391,-33.691,-37.598,-156.250
1675199288.601,-24.902,-24.902,-35.156,-24.902,51.758
1675199288.604,-6.836,-22.461,-30.762,-10.254,412.598
1675199288.608,-2.930,-23.438,-35.156,-16.113,83.984
1675199288.612,-15.625,-24.414,-38.574,-27.344,-137.207
1675199288.616,-32.227,-27.344,-40.039,-42.480,-77.637
1675199288.620,-34.668,-30.762,-39.062,-41.992,-164.551
1675199288.624,-22.949,-28.320,-35.156,-30.273,-188.965
1675199288.628,-9.277,-28.809,-39.062,-28.809,-39.551
1675199288.632,-15.137,-30.762,-38.574,-26.855,-1.465
1675199288.636,-38.574,-33.203,-34.180,-41.504,-136.230
1675199288.640,-39.551,-25.391,-38.086,-46.387,-222.168
1675199288.644,-24.414,-24.414,-41.992,-32.715,-87.402
1675199288.648,-10.742,-32.715,-42.969,-20.020,280.273
1675199288.651,-16.113,-34.180,-40.527,-32.715,111.816
1675199288.655,-31.250,-30.762,-36.133,-48.828,-196.289
1675199288.659,-33.691,-26.367,-37.109,-44.434,-82.520
1675199288.663,-28.320,-28.809,-36.621,-39.551,11.230
1675199288.667,-27.832,-33.691,-33.691,-37.109,-109.863
1675199288.682,-32.715,-35.156,-36.133,-43.945,-141.602
1675199288.686,-39.062,-34.180,-33.203,-52.246,-119.629
1675199288.690,-41.504,-33.203,-32.227,-53.223,-66.895
1675199288.694,-29.297,-31.738,-38.086,-42.969,-40.039
1675199288.698,-11.230,-34.180,-37.109,-25.879,-127.930
1675199288.702,-5.371,-30.273,-31.250,-15.625,197.266
1675199288.706,-9.277,-19.531,-24.414,-12.207,436.523
1675199288.709,-19.531,-24.414,-28.320,-33.203,-15.137
1675199288.713,-13.672,-31.250,-30.762,-42.480,-192.871
1675199288.717,4.395,-25.879,-30.273,-24.414,-57.129
1675199288.721,-2.441,-28.320,-29.297,-22.461,-47.363
1675199288.725,-26.367,-31.250,-24.902,-39.551,-129.395
1675199288.715,-39.062,-28.809,-25.879,-47.852,-124.512
1675199288.719,-27.832,-32.227,-29.785,-41.016,-47.363
1675199288.723,-17.578,-33.203,-34.180,-32.715,-96.680
1675199288.727,-21.484,-33.203,-35.645,-36.133,-125.000
1675199288.731,-31.738,-30.273,-34.180,-39.551,-2.930
1675199288.735,-37.109,-28.809,-35.156,-40.039,11.719
1675199288.739,-24.902,-27.832,-32.715,-35.156,-42.969
1675199288.742,-11.230,-30.762,-29.297,-22.461,-84.473
1675199288.746,-8.301,-38.574,-28.320,-14.648,-11.230
1675199288.750,-16.602,-37.598,-23.926,-8.789,138.672
1675199288.754,-38.574,-38.086,-31.738,-18.066,-78.125
1675199288.758,-36.133,-37.598,-34.180,-19.531,-231.934
1675199288.772,-18.066,-37.598,-25.879,-5.371,-84.961
1675199288.776,-15.137,-34.668,-22.949,-2.930,-64.453
1675199288.780,-28.320,-38.574,-28.809,-23.438,-134.766
1675199288.784,-46.875,-45.410,-32.715,-40.039,-154.297
1675199288.788,-50.293,-39.062,-29.785,-44.922,91.309
1675199288.792,-24.414,-35.156,-30.273,-33.691,356.445
1675199288.796,-0.488,-32.227,-38.086,-17.578,187.988
1675199288.799,-14.648,-33.203,-40.039,-32.227,-49.316
1675199288.803,-41.504,-34.180,-29.785,-52.734,-12.695
1675199288.807,-38.574,-29.297,-23.438,-54.688,-3.418
1675199288.811,-18.066,-30.762,-29.297,-40.527,-158.203
1675199288.815,-13.672,-36.621,-29.785,-24.414,-90.332
1675199288.817,-19.531,-38.574,-29.297,-25.879,-79.102
1675199288.821,-28.809,-34.180,-34.668,-37.598,-172.852
1675199288.825,-35.645,-29.297,-34.668,-41.016,-218.262
1675199288.829,-22.949,-30.273,-28.809,-35.645,-152.344
1675199288.833,-7.324,-32.715,-29.297,-28.320,-79.590
1675199288.837,-19.531,-29.297,-28.320,-26.855,-13.672
1675199288.841,-36.133,-21.973,-21.484,-37.598,-41.504
1675199288.844,-44.922,-24.414,-23.926,-47.363,-16.113
1675199288.848,-38.574,-33.691,-26.367,-37.598,304.688
1675199288.852,-29.785,-28.320,-24.414,-30.273,238.281
1675199288.856,-32.715,-22.461,-25.391,-40.527,-121.094
1675199288.860,-48.828,-23.926,-21.973,-53.223,-130.859
1675199288.863,-62.012,-20.020,-20.020,-64.941,-184.082
1675199288.867,-54.688,-21.484,-27.832,-69.336,-239.746
1675199288.871,-32.227,-23.926,-22.949,-50.293,-145.020
1675199288.875,-24.414,-21.484,-15.137,-37.109,64.453
1675199288.879,-51.758,-20.996,-20.996,-58.594,93.750
1675199288.883,-62.012,-18.066,-21.973,-66.895,-91.309
1675199288.887,-47.852,-18.555,-16.113,-58.594,-139.648
1675199288.890,-39.062,-22.461,-22.461,-45.410,92.773
1675199288.894,-41.504,-24.902,-28.809,-36.621,196.289
1675199288.898,-56.641,-26.855,-20.996,-52.246,-87.891
1675199288.902,-65.430,-18.555,-13.672,-63.477,-104.980
1675199288.906,-59.570,-19.531,-17.578,-65.430,-61.035
1675199288.907,-40.039,-17.578,-19.531,-53.223,-78.613
1675199288.911,-39.062,-13.184,-24.414,-48.828,-134.766
1675199288.915,-56.641,-15.625,-28.809,-62.500,-87.891
1675199288.919,-67.383,-13.184,-25.391,-70.801,-85.938
1675199288.923,-61.035,-17.578,-23.926,-72.754,-190.918
1675199288.927,-44.434,-19.043,-26.367,-67.383,-157.227
1675199288.931,-36.133,-12.695,-28.320,-58.105,41.016
1675199288.934,-48.828,-16.602,-27.344,-57.617,276.367
1675199288.938,-77.148,-18.066,-29.785,-80.566,26.855
1675199288.942,-70.801,-18.066,-32.715,-82.520,-191.895
1675199288.946,-45.898,-22.949,-33.691,-69.336,-61.035
1675199288.950,-38.086,-24.902,-33.691,-63.965,1.953
1675199288.953,-45.410,-24.414,-28.320,-72.266,-24.902
1675199288.957,-62.500,-27.344,-26.855,-86.426,-137.207
1675199288.961,-59.570,-22.461,-22.949,-77.637,104.492
1675199288.965,-52.246,-20.508,-29.785,-70.312,264.648
1675199288.969,-53.711,-31.738,-38.574,-70.312,-6.348
1675199288.973,-53.223,-31.250,-40.527,-75.684,-72.754
1675199288.977,-62.988,-20.020,-42.969,-79.590,116.699
1675199288.980,-61.035,-17.578,-39.551,-63.477,119.141
1675199288.984,-48.340,-21.484,-32.715,-53.223,-198.730
1675199288.988,-41.992,-19.531,-30.762,-47.363,-140.625
1675199288.992,-39.551,-27.344,-38.574,-39.551,-67.383
1675199288.996,-48.828,-31.250,-36.133,-43.945,-176.270
1675199288.999,-61.523,-30.762,-29.297,-62.012,-266.602
1675199289.003,-46.387,-33.691,-29.785,-54.199,-208.008
1675199289.007,-28.809,-31.250,-34.668,-38.574,-97.168
1675199289.011,-38.086,-27.344,-33.691,-47.363,-69.336
1675199289.015,-45.410,-25.391,-27.344,-52.734,-54.199
1675199289.019,-44.434,-23.438,-27.832,-48.340,-32.715
1675199289.023,-39.551,-22.461,-30.762,-30.273,260.254
1675199289.026,-28.809,-24.414,-34.668,-21.973,238.770
1675199289.030,-28.320,-27.832,-45.410,-31.250,-97.168
1675199289.034,-35.645,-26.855,-49.805,-32.227,-55.664
1675199289.038,-41.016,-25.391,-39.551,-36.133,-111.328
1675199289.042,-34.180,-27.832,-36.621,-40.527,-194.824
1675199289.057,-20.508,-24.414,-40.527,-30.273,-137.207
1675199289.061,-22.949,-26.855,-38.574,-20.996,-49.805
1675199289.065,-41.504,-34.180,-42.480,-30.762,65.918
1675199289.069,-55.176,-35.156,-41.504,-45.898,18.555
1675199289.073,-48.828,-33.691,-38.574,-45.410,-137.695
1675199289.077,-19.043,-28.320,-35.156,-17.578,208.496
1675199289.081,-14.648,-23.438,-33.203,-2.441,537.598
1675199289.084,-34.180,-24.414,-41.016,-20.508,166.504
1675199289.088,-37.598,-22.461,-33.691,-22.949,-135.742
1675199289.092,-32.715,-26.855,-25.879,-20.020,-89.355
1675199289.096,-21.484,-32.227,-37.109,-26.367,-64.941
1675199289.100,-4.395,-27.344,-37.109,-19.043,-168.945
1675199289.102,-12.207,-26.367,-27.344,-18.066,-154.785
1675199289.106,-37.598,-31.738,-29.785,-30.762,-142.090
1675199289.110,-38.086,-33.691,-35.645,-37.109,-196.289
1675199289.114,-23.438,-33.691,-34.180,-33.203,-206.055
1675199289.118,-12.695,-35.156,-32.227,-24.414,-50.781
1675199289.122,-16.602,-33.691,-26.367,-19.531,70.801
1675199289.126,-35.645,-39.062,-24.902,-34.180,-23.438
1675199289.129,-41.504,-38.574,-27.344,-47.852,-181.641
1675199289.133,-18.066,-30.762,-23.926,-23.926,-125.000
1675199289.137,-1.953,-33.691,-28.320,0.488,183.105
1675199289.141,-20.508,-39.551,-38.574,-17.578,85.449
1675199289.145,-41.504,-34.180,-36.133,-33.691,-139.648
1675199289.147,-44.434,-34.180,-30.762,-33.691,-56.641
1675199289.151,-39.062,-35.645,-31.250,-31.250,48.340
1675199289.155,-31.250,-33.203,-37.109,-28.809,77.637
1675199289.159,-36.133,-36.621,-38.574,-32.715,0.977
1675199289.163,-49.805,-35.645,-32.227,-33.203,65.918
1675199289.167,-56.152,-41.016,-31.738,-38.574,128.906
1675199289.171,-40.527,-46.387,-36.133,-37.109,-80.566
1675199289.174,-17.578,-38.574,-38.574,-19.043,-105.957
1675199289.178,-14.160,-30.273,-39.551,-3.906,130.371
1675199289.182,-25.879,-33.203,-39.551,-11.719,150.879
1675199289.186,-41.504,-37.598,-42.969,-26.855,-170.410
1675199289.190,-38.574,-42.480,-47.363,-20.996,-183.105
1675199289.192,-19.043,-42.969,-42.480,-10.254,-99.609
1675199289.196,-15.625,-38.086,-40.039,-6.348,-98.633
1675199289.200,-35.645,-37.598,-37.109,-26.367,-112.305
1675199289.204,-48.340,-38.574,-28.809,-43.945,-104.492
1675199289.208,-41.016,-41.016,-30.762,-40.039,-41.016
1675199289.212,-28.809,-45.898,-33.691,-30.762,21.484
1675199289.216,-25.391,-43.457,-32.227,-30.273,26.855
1675199289.219,-32.715,-39.062,-36.133,-32.715,0.977
1675199289.223,-40.527,-37.109,-32.227,-31.250,110.352
1675199289.227,-32.227,-36.621,-35.645,-33.203,-64.941
1675199289.231,-5.859,-29.785,-40.039,-21.484,-227.051
1675199289.235,-2.441,-24.414,-36.621,-12.695,-94.238
1675199289.237,-23.438,-31.250,-34.180,-22.461,-74.707
1675199289.241,-36.133,-36.621,-31.738,-33.691,-203.125
1675199289.245,-39.062,-33.203,-37.598,-36.621,-187.988
1675199289.249,-19.531,-31.738,-39.062,-24.902,84.473
1675199289.253,-5.859,-39.062,-39.551,-18.555,129.395
1675199289.257,-16.602,-40.039,-38.086,-33.691,-4.395
1675199289.261,-36.621,-36.621,-33.691,-44.922,-52.246
1675199289.264,-36.133,-37.598,-37.109,-37.598,100.586
1675199289.268,-14.160,-38.574,-38.574,-25.391,259.766
1675199289.272,-10.742,-41.016,-37.109,-27.344,-29.297
1675199289.276,-19.531,-39.551,-37.598,-33.203,-107.422
1675199289.280,-38.574,-35.645,-36.133,-44.922,-123.047
1675199289.283,-46.387,-39.551,-38.574,-49.805,-229.980
1675199289.287,-21.973,-42.480,-41.504,-37.109,-190.430
1675199289.291,-16.113,-44.922,-44.922,-29.297,-57.129
1675199289.295,-33.203,-42.969,-50.293,-45.410,-44.434
1675199289.299,-50.293,-36.133,-50.293,-56.152,-125.488
1675199289.303,-54.199,-38.574,-38.574,-54.199,-150.879
1675199289.307,-32.715,-33.203,-29.785,-40.039,-3.418
1675199289.310,-20.020,-30.273,-30.762,-25.391,254.883
1675199289.314,-28.320,-33.203,-31.250,-23.926,96.680
1675199289.318,-39.551,-32.715,-34.180,-32.227,-168.945
1675199289.322,-41.992,-31.738,-34.180,-37.598,-82.520
1675199289.326,-30.273,-33.203,-34.668,-20.996,16.113
1675199289.327,-19.043,-35.156,-40.039,-13.672,-78.125
1675199289.331,-20.996,-35.645,-36.133,-20.020,-78.125
1675199289.335,-29.297,-33.691,-28.809,-20.508,20.020
1675199289.339,-33.203,-32.715,-24.414,-26.367,-46.387
1675199289.343,-34.180,-38.574,-27.832,-22.949,-143.066
1675199289.347,-25.879,-40.527,-29.785,-10.254,-70.801
1675199289.351,-16.113,-37.109,-27.832,-5.371,181.641
1675199289.354,-26.367,-35.156,-34.668,-11.719,340.332
1675199289.358,-42.969,-26.855,-41.016,-26.855,-47.363
1675199289.362,-35.156,-22.461,-31.250,-27.832,-200.195
1675199289.366,-15.137,-30.762,-38.574,-24.414,-81.543
1675199289.370,-5.371,-37.109,-47.363,-27.832,-54.199
1675199289.376,-16.602,-35.156,-35.645,-34.180,-87.402
1675199289.380,-25.391,-24.902,-30.762,-40.039,-83.496
1675199289.384,-20.020,-25.391,-33.691,-31.250,-5.859
1675199289.388,-6.836,-32.227,-38.086,-19.043,-17.090
1675199289.392,-1.953,-30.273,-33.691,-15.625,-88.379
1675199289.396,-9.277,-24.902,-29.297,-13.672,37.109
1675199289.400,-21.973,-27.832,-34.668,-21.484,202.148
1675199289.403,-37.598,-30.762,-37.598,-32.227,-52.246
1675199289.407,-26.367,-30.762,-35.156,-23.926,-234.375
1675199289.411,-13.184,-33.691,-33.691,-8.301,-34.180
1675199289.415,-28.809,-33.203,-33.203,-7.812,63.965
1675199289.419,-49.316,-30.762,-33.203,-23.926,-147.949
1675199289.432,-48.828,-28.809,-28.809,-30.762,-231.445
1675199289.436,-24.414,-28.320,-25.879,-18.066,-111.328
1675199289.440,-9.766,-31.250,-31.250,-2.930,-26.367
1675199289.444,-20.508,-34.668,-29.297,-5.859,-74.219
1675199289.448,-35.156,-35.645,-28.320,-19.043,-93.750
1675199289.452,-34.668,-34.180,-29.297,-20.508,89.844
1675199289.456,-18.066,-31.738,-25.879,-1.953,468.262
1675199289.459,-21.973,-37.109,-29.785,-6.836,265.625
1675199289.463,-35.645,-41.992,-29.785,-26.367,-135.742
1675199289.467,-52.246,-40.039,-27.344,-46.875,-167.480
1675199289.471,-66.406,-40.039,-31.250,-55.176,-193.848
1675199289.475,-49.805,-35.645,-34.668,-45.410,-229.980
1675199289.477,-24.414,-30.273,-34.668,-24.902,-119.141
1675199289.481,-29.785,-31.738,-32.715,-23.926,-34.180
1675199289.485,-50.293,-30.273,-34.668,-45.898,-121.582
1675199289.489,-46.387,-26.855,-27.832,-52.246,-231.445
1675199289.493,-32.227,-30.762,-24.902,-45.898,-153.320
1675199289.497,-22.461,-36.621,-29.785,-39.062,62.988
1675199289.501,-31.738,-40.527,-24.414,-41.992,98.633
1675199289.504,-50.781,-34.668,-24.414,-52.734,41.504
1675199289.508,-61.523,-28.809,-26.855,-54.688,-6.836
1675199289.512,-48.340,-27.344,-21.973,-30.762,234.863
1675199289.516,-30.273,-29.297,-26.367,-22.949,169.434
1675199289.520,-31.250,-31.738,-25.391,-24.414,-123.535
1675199289.522,-44.922,-30.273,-18.066,-27.832,-161.133
1675199289.526,-62.012,-33.203,-25.879,-50.781,-191.895
1675199289.530,-59.082,-27.344,-29.785,-54.688,-119.141
1675199289.534,-38.086,-23.926,-30.762,-39.062,-76.172
1675199289.538,-24.414,-25.879,-28.320,-18.555,73.242
1675199289.542,-41.992,-29.785,-35.645,-30.762,87.891
1675199289.546,-62.012,-30.273,-41.016,-56.641,-102.051
1675199289.549,-49.316,-26.367,-32.227,-47.852,-180.664
1675199289.553,-31.250,-26.367,-30.273,-26.367,59.082
1675199289.557,-39.551,-35.156,-35.645,-24.902,199.707
1675199289.561,-55.664,-37.109,-29.785,-39.551,-105.957
1675199289.565,-66.406,-31.738,-26.855,-48.340,-169.434
1675199289.567,-61.523,-30.762,-29.785,-41.504,-51.270
1675199289.571,-37.109,-33.691,-24.902,-32.715,-73.242
1675199289.575,-33.691,-40.039,-29.297,-32.227,-119.141
1675199289.579,-54.199,-39.062,-33.203,-38.086,-26.855
1675199289.583,-62.500,-33.691,-28.809,-48.828,-60.059
1675199289.587,-54.688,-32.227,-31.250,-46.387,-115.723
1675199289.591,-44.922,-30.273,-28.809,-40.039,-47.363
1675199289.594,-36.133,-28.320,-24.902,-38.574,47.852
1675199289.598,-44.434,-34.668,-33.691,-37.109,196.777
1675199289.602,-61.523,-39.062,-37.109,-46.875,37.598
1675199289.606,-65.430,-30.762,-32.227,-56.152,-169.922
1675199289.610,-64.941,-32.227,-31.738,-46.875,-90.820
1675199289.613,-53.223,-40.527,-36.133,-37.598,-52.734
1675199289.617,-47.363,-38.086,-33.691,-32.715,20.996
1675199289.621,-58.105,-30.762,-24.902,-35.645,-7.812
1675199289.625,-59.082,-26.367,-25.879,-37.109,92.773
1675199289.629,-43.945,-27.344,-32.715,-23.926,177.246
1675199289.633,-36.133,-28.809,-34.180,-22.949,22.461
1675199289.637,-31.250,-35.645,-30.762,-25.879,-20.508
1675199289.640,-42.969,-39.551,-25.391,-25.391,102.051
1675199289.644,-59.570,-35.156,-28.809,-39.551,165.039
1675199289.648,-45.898,-34.668,-37.598,-41.504,-91.797
1675199289.652,-26.855,-34.668,-37.109,-25.391,-115.723
1675199289.656,-32.227,-35.645,-39.062,-29.297,-49.805
1675199289.658,-40.039,-32.715,-37.109,-37.598,-50.781
1675199289.662,-36.621,-31.250,-39.062,-38.574,-202.148
1675199289.666,-32.715,-31.738,-43.457,-33.203,-221.191
1675199289.670,-30.273,-34.668,-35.645,-26.367,-123.535
1675199289.674,-26.855,-41.016,-36.621,-18.066,-52.246
1675199289.678,-35.645,-40.527,-42.480,-24.902,-40.039
1675199289.682,-47.363,-34.180,-40.039,-41.504,-52.734
1675199289.685,-31.738,-28.320,-36.133,-23.926,262.695
1675199289.689,-17.090,-32.715,-41.504,-4.883,193.848
1675199289.693,-21.484,-37.109,-43.945,-15.137,-120.117
1675199289.697,-32.715,-33.691,-34.668,-17.090,-92.285
1675199289.701,-41.992,-37.598,-36.621,-22.949,-115.723
1675199289.702,-26.367,-38.086,-45.898,-20.020,-181.152
1675199289.706,-1.465,-35.156,-46.387,1.465,-122.070
1675199289.710,2.441,-31.250,-37.109,13.184,114.258
1675199289.714,-8.789,-25.879,-36.621,1.465,41.504
1675199289.718,-14.160,-21.484,-38.086,-14.160,-178.711
1675199289.722,0.488,-21.973,-31.738,-6.836,-107.422
1675199289.726,20.996,-20.020,-32.715,22.461,203.613
1675199289.729,14.648,-19.043,-41.016,25.879,370.605
1675199289.733,-11.719,-21.973,-45.898,-2.441,59.570
1675199289.737,-23.926,-20.508,-42.480,-12.695,-120.117
1675199289.741,-14.648,-19.531,-34.180,0.000,-68.359
1675199289.745,-4.395,-24.902,-32.227,5.371,-73.242
1675199289.749,-0.488,-25.391,-30.273,6.348,-96.680
1675199289.753,-10.254,-26.855,-29.785,6.836,-20.020
1675199289.757,-32.715,-34.180,-33.203,-5.371,-106.445
1675199289.761,-41.992,-34.668,-33.203,-12.695,-230.957
1675199289.765,-27.344,-33.691,-28.809,-2.930,-214.355
1675199289.769,-9.277,-30.762,-27.344,11.719,-3.418
1675199289.773,-18.555,-28.809,-32.227,7.324,172.852
1675199289.776,-35.156,-29.785,-36.621,-9.766,-68.359
1675199289.780,-41.016,-32.715,-33.691,-21.484,-281.250
1675199289.784,-23.926,-28.809,-29.297,-7.812,-100.586
1675199289.788,-10.742,-31.738,-26.367,2.441,52.734
1675199289.792,-23.926,-34.668,-30.273,-16.602,-15.625
1675199289.794,-41.016,-27.832,-33.203,-25.879,-86.426
1675199289.798,-37.109,-26.367,-24.414,-13.672,-37.598
1675199289.802,-20.996,-20.020,-23.926,-17.090,9.766
1675199289.806,-15.137,-15.137,-36.621,-20.020,-103.516
1675199289.810,-13.672,-20.996,-41.992,-13.184,-162.598
1675199289.814,-22.949,-21.484,-36.621,-17.578,70.801
1675199289.818,-26.855,-22.461,-34.180,-16.602,301.270
1675199289.821,-26.367,-32.715,-45.410,-29.297,-77.637
1675199289.825,-18.555,-35.156,-43.457,-25.879,-223.145
1675199289.829,-4.883,-29.297,-35.156,-10.254,-39.062
1675199289.833,-24.414,-30.762,-38.574,-28.320,-49.316
1675199289.837,-43.457,-32.227,-41.016,-41.992,-222.168
1675199289.852,-28.320,-29.785,-37.598,-34.180,-235.840
1675199289.856,-12.695,-39.062,-35.156,-21.973,-113.281
1675199289.860,-13.672,-40.039,-31.250,-13.672,17.090
1675199289.864,-22.461,-37.109,-35.645,-23.926,-39.062
1675199289.868,-27.832,-36.133,-40.527,-29.297,-117.676
1675199289.872,-30.273,-30.762,-32.715,-15.137,129.395
1675199289.876,-21.973,-29.297,-31.738,-8.301,173.340
1675199289.879,-9.277,-30.762,-40.039,0.977,-67.383
1675199289.883,-15.137,-29.297,-35.645,4.883,-58.105
1675199289.887,-30.273,-24.902,-26.855,3.418,22.461
1675199289.891,-23.926,-31.250,-29.297,1.465,-134.277
1675199289.895,-5.859,-35.156,-29.297,9.766,-144.043
1675199289.897,-2.930,-33.203,-33.691,17.578,-49.316
1675199289.901,-17.578,-37.598,-34.180,4.395,-54.688
1675199289.905,-25.879,-34.180,-29.297,-7.812,-51.758
1675199289.909,-25.391,-31.738,-36.621,-17.090,-144.043
1675199289.913,-11.230,-36.133,-38.086,-9.277,-6.348
1675199289.917,3.906,-34.668,-31.250,3.906,160.156
1675199289.921,-6.348,-32.715,-31.738,-5.371,41.016
1675199289.924,-20.996,-34.668,-32.227,-22.949,-42.480
1675199289.928,-28.320,-35.645,-33.691,-24.414,83.984
1675199289.932,-18.066,-35.156,-37.598,-8.301,250.488
1675199289.936,-5.371,-35.645,-41.504,-12.695,-36.621
1675199289.940,-13.672,-33.691,-36.621,-22.949,-121.094
1675199289.942,-30.762,-29.297,-38.574,-34.668,-64.941
1675199289.946,-27.344,-23.438,-43.945,-29.297,-132.812
1675199289.950,-7.812,-21.973,-43.457,-14.648,-178.223
1675199289.954,3.418,-23.438,-37.109,1.465,-78.125
1675199289.958,-11.230,-28.809,-28.320,5.371,3.418
1675199289.962,-37.598,-29.297,-27.832,-8.301,-20.508
1675199289.966,-47.852,-32.227,-28.809,-16.602,-65.430
1675199289.969,-37.109,-40.039,-24.414,-13.672,-30.762
1675199289.973,-24.414,-42.969,-24.902,3.418,282.227
1675199289.977,-28.809,-42.480,-28.809,-0.488,167.480
1675199289.981,-38.086,-40.039,-32.227,-11.230,-189.453
1675199289.985,-39.062,-41.992,-33.203,-8.301,-53.711
1675199289.987,-34.668,-47.852,-39.551,-15.137,62.988
1675199289.991,-20.508,-43.457,-45.410,-5.859,-60.547
1675199289.995,-12.207,-38.086,-38.086,3.906,-64.453
1675199289.999,-30.273,-39.062,-28.320,-14.648,76.660
1675199290.003,-42.480,-34.668,-30.273,-26.855,24.414
1675199290.007,-34.180,-34.180,-32.715,-27.832,-175.781
1675199290.011,-12.695,-38.086,-30.273,-19.043,-132.324
1675199290.014,-7.812,-36.133,-27.832,-6.348,157.227
1675199290.018,-31.738,-37.598,-31.250,-13.184,198.730
1675199290.022,-41.992,-35.156,-30.273,-32.227,-145.508
1675199290.026,-29.785,-32.715,-28.809,-28.809,-168.945
1675199290.030,-19.531,-36.133,-33.691,-14.160,-114.258
1675199290.035,-16.602,-38.574,-34.668,-9.766,-87.891
1675199290.039,-25.391,-37.598,-34.180,-14.160,-131.836
1675199290.043,-38.574,-38.086,-36.133,-20.996,-155.273
1675199290.047,-29.785,-36.133,-32.715,-24.414,-72.754
1675199290.051,-14.160,-36.621,-32.227,-11.230,-80.078
1675199290.055,-4.395,-38.086,-35.645,6.348,-24.902
1675199290.059,-11.719,-38.574,-34.668,2.930,28.809
1675199290.062,-31.250,-40.039,-31.250,-11.719,154.785
1675199290.066,-31.738,-40.527,-29.785,-14.160,7.324
1675199290.070,-25.879,-45.898,-31.738,-2.930,-225.586
1675199290.074,-21.973,-44.922,-27.344,5.859,-110.352
1675199290.078,-23.438,-38.574,-26.855,2.930,-56.641
1675199290.077,-40.527,-40.527,-38.086,-17.090,-200.684
1675199290.081,-38.574,-43.945,-40.527,-20.508,-208.496
1675199290.085,-21.973,-40.527,-33.691,-3.906,-19.043
1675199290.089,-15.137,-39.062,-32.227,-0.977,52.246
1675199290.093,-27.344,-39.551,-32.227,-16.113,-15.137
1675199290.097,-43.945,-36.133,-31.738,-33.203,-65.918
1675199290.101,-44.922,-36.133,-27.832,-32.715,69.336
1675199290.104,-32.715,-39.062,-24.414,-22.461,376.465
1675199290.108,-27.344,-41.016,-36.621,-19.043,136.230
1675199290.112,-32.715,-41.992,-43.945,-28.320,-119.629
1675199290.116,-43.945,-42.969,-39.062,-41.992,-57.129
1675199290.120,-45.410,-38.574,-41.016,-45.898,-141.602
1675199290.124,-36.133,-33.691,-39.062,-38.574,-244.141
1675199290.128,-28.809,-39.062,-38.086,-27.832,-123.535
1675199290.132,-36.133,-46.387,-48.828,-40.527,-42.969
1675199290.136,-54.199,-48.340,-42.969,-55.664,-152.344
1675199290.140,-70.801,-53.711,-39.551,-62.988,-246.582
1675199290.144,-59.082,-53.711,-40.527,-53.711,-143.066
1675199290.148,-33.691,-50.781,-39.062,-33.203,130.859
1675199290.151,-39.551,-54.688,-46.875,-35.645,49.805
1675199290.155,-58.594,-55.176,-43.945,-41.992,-130.371
1675199290.159,-59.082,-48.828,-37.598,-45.898,-53.711
1675199290.163,-38.086,-39.062,-37.598,-38.574,96.680
1675199290.167,-22.461,-35.645,-33.691,-22.461,-11.719
1675199290.182,-23.438,-36.621,-32.715,-15.137,-117.188
1675199290.186,-32.715,-34.180,-41.992,-33.203,-108.398
1675199290.190,-38.574,-32.227,-40.527,-47.852,-117.188
1675199290.194,-35.645,-33.691,-36.133,-37.598,-170.898
1675199290.198,-21.973,-38.086,-37.109,-25.879,-187.500
1675199290.202,-20.020,-40.039,-37.598,-18.066,168.945
1675199290.206,-34.180,-38.574,-37.109,-28.320,409.668
1675199290.209,-46.875,-39.062,-36.133,-45.898,11.230
1675199290.213,-44.922,-39.551,-33.691,-40.039,-147.461
1675199290.217,-26.367,-39.551,-34.668,-27.344,25.879
1675199290.221,-22.461,-42.480,-37.598,-23.438,123.047
1675199290.225,-37.598,-40.039,-41.504,-29.297,-3.418
1675199290.215,-45.898,-36.133,-41.504,-32.227,-92.773
1675199290.219,-36.621,-37.109,-36.621,-28.809,-68.848
1675199290.223,-24.902,-36.133,-38.086,-21.973,-117.188
1675199290.227,-19.531,-31.738,-40.527,-18.555,-150.879
1675199290.231,-28.320,-38.574,-44.434,-22.949,-108.398
1675199290.235,-41.504,-44.922,-39.062,-30.762,-27.344
1675199290.239,-42.969,-42.969,-34.668,-37.598,-6.836
1675199290.242,-30.762,-39.062,-35.645,-27.832,-94.238
1675199290.246,-17.578,-40.039,-29.297,-15.625,-38.574
1675199290.250,-21.484,-38.086,-28.320,-12.207,182.129
1675199290.254,-39.551,-36.133,-38.086,-30.273,35.645
1675199290.258,-46.875,-45.898,-41.992,-43.945,-143.066
1675199290.272,-29.297,-42.969,-38.574,-31.250,-66.406
1675199290.276,-16.602,-35.156,-39.062,-17.578,62.988
1675199290.280,-32.227,-39.062,-39.551,-25.391,21.973
1675199290.284,-50.781,-38.086,-37.598,-40.527,-141.602
1675199290.288,-52.734,-34.668,-38.086,-40.527,0.000
1675199290.292,-35.645,-41.992,-35.645,-25.391,282.227
1675199290.296,-26.367,-46.875,-39.551,-18.555,86.426
1675199290.299,-34.668,-42.969,-39.551,-31.250,-127.441
1675199290.303,-41.016,-36.621,-35.645,-34.668,-7.324
1675199290.307,-43.457,-35.156,-36.133,-35.156,-76.172
1675199290.311,-39.551,-43.457,-41.016,-38.086,-242.188
1675199290.315,-25.879,-42.969,-40.527,-20.996,-154.785
1675199290.315,-25.879,-42.969,-40.527,-20.996,-154.785
1675199290.317,-32.715,-40.039,-33.691,-17.090,-59.082
1675199290.321,-46.387,-39.551,-30.762,-30.762,-113.770
1675199290.325,-51.758,-40.039,-35.645,-46.387,-215.332
1675199290.329,-47.363,-42.480,-37.598,-39.062,-167.969
1675199290.333,-37.598,-41.016,-33.691,-18.066,-38.574
1675199290.337,-31.250,-42.480,-30.273,-17.578,50.781
1675199290.341,-40.039,-44.922,-30.762,-31.250,42.480
1675199290.344,-53.223,-49.316,-34.668,-37.598,-6.836
1675199290.348,-38.086,-46.875,-31.250,-23.926,282.715
1675199290.352,-23.438,-43.945,-34.668,-15.137,245.605
1675199290.356,-17.578,-40.039,-40.039,-10.742,-124.512
1675199290.360,-25.391,-32.227,-32.227,-7.324,-99.609
1675199290.362,-39.551,-30.273,-25.391,-20.508,-127.441
1675199290.366,-35.645,-29.785,-25.391,-26.367,-185.059
1675199290.370,-20.508,-31.250,-26.367,-16.602,-124.512
1675199290.374,-9.766,-33.691,-29.297,-0.488,71.777
1675199290.378,-19.531,-36.133,-31.250,-2.930,148.438
1675199290.382,-37.109,-37.598,-31.738,-16.113,-43.457
1675199290.386,-35.156,-33.691,-26.367,-15.137,-185.059
1675199290.389,-18.066,-31.250,-31.250,0.488,33.691
1675199290.393,-3.418,-30.762,-34.668,12.695,270.020
1675199290.397,-15.625,-28.809,-29.785,-5.371,-0.977
1675199290.401,-38.574,-30.273,-25.879,-24.414,-196.777
1675199290.405,-37.109,-31.738,-28.809,-28.809,-112.793
1675199290.407,-21.973,-32.227,-31.738,-24.414,-81.055
1675199290.411,-16.113,-36.133,-38.086,-14.648,-117.676
1675199290.415,-26.367,-34.668,-42.969,-19.043,-62.012
1675199290.419,-41.016,-35.156,-41.016,-39.062,-68.359
1675199290.423,-38.086,-33.691,-35.645,-44.434,-155.273
1675199290.427,-22.949,-26.367,-28.320,-26.855,-76.660
1675199290.431,-10.742,-26.367,-27.832,-5.859,89.355
1675199290.434,-8.789,-31.738,-30.762,3.906,367.188
1675199290.438,-30.762,-35.156,-38.086,-11.230,166.016
1675199290.442,-53.223,-34.668,-41.992,-30.273,-239.258
1675199290.446,-38.086,-32.715,-35.156,-15.137,-124.023
1675199290.450,-9.766,-35.645,-26.855,7.324,50.293
1675199290.453,-16.602,-39.062,-29.297,-1.465,-12.695
1675199290.457,-39.551,-39.551,-30.762,-23.926,-195.312
1675199290.461,-39.551,-35.645,-23.438,-24.902,-53.223
1675199290.465,-26.367,-33.203,-19.043,-18.555,205.566
1675199290.469,-13.672,-33.691,-30.762,-21.973,-27.832
1675199290.473,-13.672,-33.203,-37.109,-20.020,-126.465
1675199290.477,-26.367,-33.203,-37.109,-24.414,206.055
1675199290.480,-36.133,-35.645,-39.062,-37.598,277.344
1675199290.484,-37.109,-40.527,-40.039,-43.457,-171.875
1675199290.488,-19.043,-38.086,-45.898,-29.785,-203.125
1675199290.492,-13.184,-34.668,-42.969,-19.531,-61.523
1675199290.496,-28.809,-32.715,-37.598,-32.715,-152.832
1675199290.499,-44.922,-30.273,-38.086,-52.734,-271.973
1675199290.503,-43.457,-32.715,-34.668,-48.340,-252.930
1675199290.507,-29.785,-35.645,-39.551,-31.250,-140.625
1675199290.511,-30.762,-34.668,-45.410,-30.762,-49.805
1675199290.515,-48.828,-31.738,-40.527,-40.527,-31.738
1675199290.519,-56.641,-32.715,-33.691,-41.992,-11.719
1675199290.523,-43.945,-31.250,-31.250,-27.832,328.125
1675199290.526,-27.832,-35.645,-35.645,-16.602,293.945
1675199290.530,-30.273,-42.969,-39.551,-18.555,-67.383
1675199290.534,-42.480,-41.504,-36.133,-20.996,-61.035
1675199290.538,-55.176,-40.527,-32.227,-31.738,-59.082
1675199290.542,-47.852,-39.062,-33.691,-38.086,-121.094
1675199290.542,-30.273,-40.039,-38.086,-27.344,-151.855
1675199290.546,-22.461,-42.969,-31.738,-22.461,-76.172
1675199290.550,-27.832,-40.527,-22.461,-32.715,-25.879
1675199290.554,-48.340,-38.086,-27.832,-42.480,-110.840
1675199290.558,-50.293,-33.203,-36.621,-45.898,-245.117
1675199290.562,-21.484,-26.367,-31.250,-23.438,37.109
1675199290.566,-2.930,-26.855,-26.855,0.488,336.426
1675199290.569,-18.066,-32.715,-33.691,-12.695,91.797
1675199290.573,-39.551,-37.109,-34.180,-30.762,-170.898
1675199290.577,-37.109,-39.551,-25.391,-30.762,-21.973
1675199290.581,-21.973,-42.969,-27.832,-23.926,75.684
1675199290.585,-14.160,-36.621,-35.156,-19.531,-112.793
1675199290.604,-17.578,-27.832,-32.715,-17.578,-103.516
1675199290.608,-37.109,-30.762,-36.133,-34.180,-130.859
1675199290.612,-38.086,-29.785,-38.574,-38.086,-203.125
1675199290.616,-25.879,-31.738,-38.574,-18.555,-211.426
1675199290.620,-15.625,-35.156,-40.527,-14.160,-100.586
1675199290.624,-14.648,-30.273,-36.133,-13.184,47.852
1675199290.628,-36.133,-32.227,-37.598,-23.926,53.711
1675199290.631,-46.875,-37.598,-39.551,-42.969,-152.832
1675199290.635,-30.762,-41.016,-35.645,-32.715,-171.875
1675199290.639,-12.695,-41.504,-38.574,-4.395,116.211
1675199290.643,-19.043,-42.969,-40.039,-11.719,62.500
1675199290.647,-37.598,-39.062,-33.691,-35.156,-142.578
1675199290.647,-42.969,-31.250,-26.367,-30.273,-34.668
1675199290.651,-27.832,-27.344,-23.926,-16.113,62.988
1675199290.655,-10.254,-27.344,-27.832,-8.789,-30.273
1675199290.659,-11.719,-22.461,-30.762,-9.277,-91.797
1675199290.663,-24.902,-19.043,-33.691,-21.973,-49.316
1675199290.667,-34.668,-24.414,-32.227,-31.250,-20.996
1675199290.671,-37.598,-30.762,-28.809,-35.156,-82.031
1675199290.674,-24.414,-30.762,-31.250,-31.250,-118.164
1675199290.678,-15.137,-24.902,-32.227,-17.578,104.980
1675199290.682,-35.645,-28.320,-32.227,-25.879,391.113
1675199290.686,-50.781,-39.551,-41.504,-49.805,18.555
1675199290.690,-36.621,-41.992,-38.086,-41.016,-259.766
1675199290.693,-22.461,-42.480,-35.156,-22.949,-136.719
1675199290.697,-15.137,-41.504,-41.992,-16.602,-58.105
1675199290.701,-20.996,-39.062,-42.480,-24.902,-76.172
1675199290.705,-36.621,-35.645,-32.715,-31.250,-121.094
1675199290.709,-35.645,-32.715,-30.762,-24.902,-103.027
1675199290.713,-24.902,-36.133,-35.645,-18.066,-52.734
1675199290.717,-20.020,-32.715,-33.203,-15.625,-5.371
1675199290.720,-23.926,-28.809,-27.832,-15.137,26.367
1675199290.724,-31.250,-33.203,-23.926,-13.184,214.844
1675199290.728,-36.133,-32.227,-27.832,-25.879,4.883
1675199290.732,-18.555,-26.855,-23.926,-15.625,-250.977
1675199290.736,-10.254,-25.879,-17.090,-7.812,-88.379
1675199290.737,-29.297,-29.785,-20.020,-25.879,-28.809
1675199290.741,-48.340,-27.832,-28.809,-43.945,-137.207
1675199290.745,-53.711,-25.879,-30.273,-47.852,-113.281
1675199290.749,-40.527,-25.391,-27.344,-27.832,63.477
1675199290.753,-27.832,-24.902,-28.809,-15.625,184.570
1675199290.757,-35.156,-22.949,-26.855,-23.438,10.254
1675199290.761,-42.480,-21.484,-24.902,-35.156,-83.008
1675199290.764,-36.621,-20.020,-21.973,-34.180,64.453
1675199290.768,-27.344,-21.973,-17.578,-27.344,187.500
1675199290.772,-21.973,-21.973,-25.879,-24.414,-73.242
1675199290.776,-31.738,-23.438,-28.320,-23.926,-202.637
1675199290.780,-50.293,-29.297,-25.391,-34.180,-136.230
1675199290.783,-54.688,-32.227,-26.367,-40.527,-218.750
1675199290.787,-41.016,-32.227,-26.855,-27.344,-251.953
1675199290.791,-18.555,-30.762,-27.344,-6.836,-97.168
1675199290.795,-18.555,-26.855,-21.973,-5.859,-2.441
1675199290.799,-34.668,-24.902,-21.973,-20.020,-112.305
1675199290.803,-36.621,-23.926,-25.391,-24.902,-163.086
1675199290.807,-26.367,-22.949,-26.367,-22.949,-4.395
1675199290.810,-7.812,-24.902,-28.809,-5.859,332.031
1675199290.814,-13.672,-27.344,-32.227,-7.812,192.871
1675199290.818,-37.109,-30.273,-33.203,-32.227,-156.250
1675199290.822,-46.387,-29.785,-28.809,-35.156,-135.254
1675199290.826,-44.434,-32.227,-28.320,-29.297,-151.855
1675199290.828,-31.250,-31.738,-34.180,-24.414,-151.855
1675199290.832,-25.391,-24.414,-35.645,-23.926,-145.508
1675199290.836,-33.691,-20.996,-31.250,-26.367,41.016
1675199290.840,-42.480,-23.438,-36.133,-36.133,15.625
1675199290.844,-38.574,-26.855,-43.945,-48.828,-228.516
1675199290.848,-20.996,-24.414,-37.109,-35.156,-131.348
1675199290.852,-21.973,-22.949,-32.227,-20.996,204.590
1675199290.855,-41.504,-27.832,-33.203,-22.461,376.465
1675199290.859,-54.199,-28.809,-34.668,-37.598,-29.297
1675199290.863,-39.062,-24.902,-27.832,-31.250,-179.688
1675199290.867,-19.531,-26.855,-24.414,-19.043,-125.000
1675199290.871,-14.648,-30.273,-27.344,-18.066,-89.355
1675199290.875,-24.902,-32.715,-34.180,-20.996,-118.164
1675199290.879,-39.062,-32.715,-36.133,-26.855,-150.879
1675199290.883,-37.109,-32.715,-31.738,-29.297,-90.332
1675199290.887,-17.578,-32.715,-29.297,-17.090,-100.098
1675199290.891,-1.465,-32.715,-29.785,-8.301,-127.930
1675199290.895,-12.207,-31.250,-22.461,-11.719,-12.695
1675199290.899,-31.250,-27.832,-15.625,-17.090,143.555
1675199290.902,-44.922,-32.227,-27.832,-33.203,23.438
1675199290.906,-38.086,-33.203,-32.715,-35.156,-126.465
1675199290.910,-22.949,-33.691,-32.715,-20.996,20.996
1675199290.914,-33.203,-36.621,-31.738,-22.949,165.527
1675199290.918,-55.664,-38.086,-31.250,-42.969,-46.875
1675199290.947,-57.617,-36.621,-27.832,-50.293,-162.598
1675199290.951,-44.434,-36.133,-18.555,-38.086,-85.449
1675199290.955,-34.180,-35.645,-20.020,-29.297,15.137
1675199290.959,-31.250,-33.691,-20.020,-28.320,34.180
1675199290.963,-40.527,-26.367,-17.090,-28.320,-135.254
1675199290.967,-46.387,-24.902,-24.414,-25.391,-25.879
1675199290.971,-31.738,-28.809,-25.391,-16.113,417.969
1675199290.974,-21.973,-29.785,-31.250,-6.348,331.543
1675199290.978,-20.996,-30.273,-36.133,-5.859,-16.602
1675199290.982,-34.668,-30.762,-30.762,-21.484,-93.750
1675199290.986,-41.504,-24.902,-28.320,-26.855,-174.805
1675199290.990,-18.555,-23.438,-21.484,-16.113,-256.348
1675199290.977,-3.906,-28.809,-20.020,-0.977,-156.250
1675199290.981,-7.324,-29.297,-28.320,1.465,-41.992
1675199290.985,-22.949,-28.809,-24.414,-15.625,-132.812
1675199290.989,-36.621,-31.738,-27.344,-35.156,-208.496
1675199290.993,-32.227,-34.180,-35.156,-35.156,-111.328
1675199290.997,-22.949,-33.203,-35.156,-17.090,15.625
1675199291.001,-22.949,-35.156,-39.062,-15.625,25.879
1675199291.004,-31.250,-32.227,-34.180,-23.438,16.602
1675199291.008,-46.875,-29.785,-27.344,-32.715,-37.109
1675199291.012,-45.410,-34.180,-28.320,-25.391,-82.031
1675199291.016,-29.785,-38.086,-33.203,-18.066,-97.168
1675199291.020,-29.297,-34.668,-32.715,-26.367,-65.918
1675199291.022,-41.992,-29.297,-24.902,-27.344,22.949
1675199291.026,-52.734,-32.715,-25.391,-30.273,330.078
1675199291.030,-43.457,-29.297,-23.438,-42.480,190.918
1675199291.034,-24.414,-31.738,-26.855,-42.480,-182.617
1675199291.038,-13.184,-28.320,-24.902,-22.949,41.504
1675199291.042,-24.902,-20.996,-18.066,-18.555,190.430
1675199291.046,-46.387,-28.320,-23.926,-43.945,-35.156
1675199291.049,-43.945,-36.133,-29.785,-59.570,-244.629
1675199291.053,-19.531,-37.109,-31.738,-33.203,-6.836
1675199291.057,-12.207,-28.809,-31.738,-12.207,320.801
1675199291.061,-25.879,-25.879,-33.691,-23.926,-43.945
1675199291.065,-32.715,-24.902,-28.809,-34.180,-187.988
1675199291.067,-31.250,-27.344,-26.855,-33.691,-153.809
1675199291.071,-13.672,-27.832,-28.320,-15.137,-205.566
1675199291.075,0.000,-23.926,-25.391,2.441,-158.203
1675199291.079,-14.648,-25.879,-26.367,-4.395,-49.805
1675199291.083,-27.832,-26.855,-26.367,-20.508,-126.465
1675199291.087,-33.691,-29.297,-26.855,-28.809,-163.574
1675199291.091,-33.691,-33.203,-32.227,-29.785,-29.297
1675199291.094,-21.484,-34.668,-28.320,-23.926,-18.555
1675199291.098,-20.996,-34.180,-23.438,-19.531,192.383
1675199291.102,-41.992,-31.250,-30.273,-41.992,87.402
1675199291.106,-52.246,-30.273,-28.809,-53.711,-185.547
1675199291.110,-40.039,-29.785,-27.344,-38.574,-123.047
1675199291.113,-28.320,-31.738,-34.668,-33.691,25.879
1675199291.117,-36.133,-33.691,-34.180,-41.992,38.574
1675199291.121,-50.293,-35.645,-27.344,-53.711,-65.430
1675199291.125,-46.387,-32.715,-20.020,-53.223,77.637
1675199291.129,-33.691,-29.785,-22.461,-39.062,259.766
1675199291.133,-20.996,-31.738,-30.273,-28.809,116.211
1675199291.137,-19.531,-31.250,-25.391,-24.414,-67.871
1675199291.140,-33.691,-33.691,-26.855,-34.180,58.594
1675199291.144,-46.387,-36.621,-37.109,-41.992,85.938
1675199291.148,-45.410,-34.180,-38.086,-38.086,-259.277
1675199291.152,-25.879,-32.715,-33.203,-27.832,-250.000
1675199291.156,-27.832,-29.785,-29.297,-16.602,-133.301
1675199291.157,-46.387,-30.762,-27.832,-19.043,-192.383
1675199291.161,-53.711,-38.574,-25.879,-28.809,-235.840
1675199291.165,-51.758,-34.668,-25.879,-36.133,-240.723
1675199291.169,-47.363,-33.691,-26.855,-41.504,-124.512
1675199291.173,-50.293,-38.574,-23.926,-40.527,3.418
1675199291.177,-61.035,-37.109,-27.832,-48.828,-18.555
1675199291.181,-73.242,-37.598,-27.832,-56.641,-3.906
1675199291.184,-70.312,-37.109,-20.020,-46.875,251.465
1675199291.188,-58.105,-42.969,-16.602,-40.039,246.094
1675199291.192,-59.570,-51.758,-20.508,-44.434,-63.477
1675199291.196,-59.570,-43.457,-17.578,-46.387,-81.543
1675199291.200,-70.312,-35.645,-15.137,-64.453,-124.512
1675199291.202,-81.543,-36.621,-22.461,-71.777,-203.125
1675199291.206,-61.035,-34.180,-23.926,-50.293,-212.402
1675199291.210,-34.668,-27.344,-20.508,-32.227,46.875
1675199291.214,-37.109,-31.250,-16.602,-40.039,127.441
1675199291.218,-57.617,-39.551,-20.996,-62.012,-170.898
1675199291.222,-59.570,-39.551,-25.879,-62.012,-202.637
1675199291.226,-38.086,-35.156,-18.066,-41.016,165.527
1675199291.229,-20.508,-29.785,-12.207,-18.066,450.195
1675199291.233,-34.180,-34.668,-23.438,-30.762,100.098
1675199291.237,-52.246,-40.527,-34.668,-45.898,-123.535
1675199291.241,-47.852,-36.621,-23.926,-45.898,-77.148
1675199291.245,-35.156,-33.203,-16.113,-33.203,-78.613
1675199291.249,-24.414,-35.156,-27.344,-18.555,-108.398
1675199291.253,-28.809,-30.273,-27.344,-20.020,-63.965
1675199291.257,-43.457,-24.414,-19.531,-26.855,-69.336
1675199291.261,-54.688,-29.297,-19.531,-40.039,-212.402
1675199291.265,-46.387,-31.738,-25.879,-42.969,-230.469
1675199291.269,-29.297,-33.691,-33.203,-23.438,-41.504
1675199291.273,-30.762,-35.645,-30.762,-12.695,221.680
1675199291.276,-49.316,-35.645,-27.832,-33.203,43.457
1675199291.280,-61.523,-31.250,-32.227,-48.828,-235.352
1675199291.284,-49.316,-28.809,-28.320,-44.434,-140.625
1675199291.288,-38.086,-30.762,-27.832,-45.898,11.719
1675199291.292,-41.016,-33.203,-34.180,-56.152,17.090
1675199291.293,-52.246,-40.527,-36.621,-62.988,-144.531
1675199291.297,-58.105,-41.016,-29.297,-65.430,-60.059
1675199291.301,-44.434,-34.180,-26.367,-52.246,34.180
1675199291.305,-30.273,-35.156,-35.156,-35.156,-135.742
1675199291.309,-30.762,-33.203,-34.668,-25.391,-114.746
1675199291.313,-46.387,-25.879,-30.273,-34.668,143.066
1675199291.317,-54.688,-25.391,-35.645,-51.270,316.895
1675199291.320,-50.293,-23.926,-45.898,-53.223,-1.953
1675199291.324,-35.156,-20.020,-39.062,-31.250,-139.648
1675199291.328,-25.879,-22.949,-32.227,-17.578,43.457
1675199291.332,-36.621,-21.484,-36.621,-24.414,42.480
1675199291.336,-47.852,-23.926,-35.156,-27.832,-104.980
1675199291.353,-42.480,-27.832,-30.762,-28.809,-142.578
1675199291.357,-22.461,-27.832,-33.203,-22.949,-29.785
1675199291.361,-15.137,-25.879,-31.738,-10.254,6.836
1675199291.365,-25.391,-24.414,-30.762,-15.137,-150.391
1675199291.369,-28.320,-20.996,-29.785,-25.391,-173.828
1675199291.373,-22.461,-17.090,-23.438,-18.555,94.238
1675199291.377,-19.531,-21.973,-36.133,-20.020,125.000
1675199291.380,-6.836,-20.020,-41.992,-22.461,-110.840
1675199291.384,-11.719,-17.578,-35.156,-22.949,-68.848
1675199291.388,-40.039,-25.879,-30.273,-41.992,30.762
1675199291.392,-48.828,-29.297,-28.320,-49.316,-163.574
1675199291.396,-27.344,-24.414,-31.250,-33.691,-245.605
1675199291.397,-10.254,-21.973,-33.203,-22.461,-94.727
1675199291.401,-19.531,-30.273,-35.645,-29.297,-2.441
1675199291.405,-29.297,-29.785,-32.715,-35.156,-75.684
1675199291.409,-30.273,-24.902,-29.785,-40.527,-175.293
1675199291.413,-20.508,-29.297,-29.785,-30.762,128.418
1675199291.417,-9.277,-26.367,-32.227,-14.160,430.176
1675199291.421,-22.949,-27.344,-35.156,-21.973,126.953
1675199291.424,-41.504,-29.297,-32.227,-31.250,-45.898
1675199291.428,-41.504,-26.367,-32.227,-20.508,119.629
1675199291.432,-27.832,-32.227,-38.574,-13.184,183.105
1675199291.436,-24.414,-37.109,-46.387,-18.066,-116.211
1675199291.440,-26.855,-32.715,-47.363,-6.348,-133.301
1675199291.442,-32.715,-29.297,-46.387,-17.578,-72.754
1675199291.446,-41.016,-30.762,-42.480,-33.691,-152.344
1675199291.450,-27.344,-32.227,-37.109,-18.066,-149.902
1675199291.454,-10.254,-28.809,-39.062,-1.953,-56.641
1675199291.458,-6.836,-30.273,-37.109,2.930,-37.598
1675199291.462,-23.926,-37.598,-40.527,-9.766,-21.484
1675199291.466,-41.504,-36.621,-39.551,-27.832,-51.270
1675199291.469,-31.250,-31.250,-34.668,-25.391,-136.230
1675199291.473,-14.160,-27.344,-38.574,-5.371,266.602
1675199291.477,-12.695,-27.832,-39.062,-12.695,324.219
1675199291.481,-29.785,-27.832,-40.039,-36.133,-130.859
1675199291.485,-45.898,-27.344,-43.457,-44.922,-185.059
1675199291.487,-41.016,-29.785,-41.016,-41.016,-113.281
1675199291.491,-24.414,-33.691,-44.922,-32.715,-159.180
1675199291.495,-27.832,-38.086,-50.293,-30.273,-159.180
1675199291.499,-49.805,-35.156,-43.945,-32.715,41.992
1675199291.503,-61.523,-34.668,-36.133,-43.945,18.555
1675199291.507,-58.594,-42.480,-41.504,-51.270,-206.543
1675199291.511,-33.203,-40.527,-44.922,-30.273,-155.762
1675199291.514,-11.719,-34.180,-38.574,-1.465,128.906
1675199291.518,-11.719,-30.762,-33.203,3.906,194.824
1675199291.522,-23.926,-32.227,-32.715,-12.695,-135.254
1675199291.526,-25.879,-37.598,-34.180,-12.695,-217.773
1675199291.530,-8.301,-40.527,-36.621,0.488,-26.855
1675199291.534,-1.465,-40.527,-39.551,0.977,49.316
1675199291.538,-11.719,-35.645,-35.645,-5.371,-102.539
1675199291.542,-26.855,-28.320,-32.227,-16.602,-151.367
1675199291.546,-36.133,-23.926,-34.668,-21.484,-86.426
1675199291.550,-26.855,-25.879,-33.691,-26.367,-112.793
1675199291.554,-25.391,-35.156,-39.062,-33.691,-60.059
1675199291.558,-43.945,-45.898,-42.480,-43.457,110.352
1675199291.561,-59.082,-41.504,-32.715,-47.363,189.453
1675199291.565,-66.406,-37.598,-33.691,-60.059,-58.105
1675199291.569,-50.781,-44.434,-37.109,-60.547,-184.570
1675199291.573,-22.949,-43.457,-35.645,-39.062,-18.555
1675199291.577,-18.066,-41.992,-34.180,-34.668,5.859
1675199291.577,-34.668,-42.480,-32.715,-41.504,-105.469
1675199291.581,-38.574,-37.109,-29.785,-39.551,-185.059
1675199291.585,-24.414,-32.715,-28.320,-25.879,2.930
1675199291.589,-11.719,-36.621,-32.227,-12.207,225.098
1675199291.593,-9.277,-38.086,-34.668,-8.301,64.941
1675199291.597,-5.859,-36.621,-39.551,-9.277,-79.590
1675199291.601,-3.906,-34.668,-39.062,-9.766,58.105
1675199291.604,-1.465,-33.203,-28.320,-5.859,327.148
1675199291.608,9.277,-37.598,-32.227,-0.977,105.957
1675199291.612,19.043,-33.203,-30.762,11.719,-168.945
1675199291.616,-3.418,-32.715,-22.949,-2.441,-169.922
1675199291.620,-22.461,-37.109,-24.414,-18.555,-218.750
1675199291.624,-7.812,-38.574,-21.484,-9.277,-210.938
1675199291.628,4.883,-37.109,-22.461,0.000,-156.250
1675199291.632,6.348,-34.180,-24.414,10.254,-109.375
1675199291.636,-11.230,-34.668,-20.508,-7.324,-144.043
1675199291.640,-26.855,-33.691,-21.973,-31.250,-229.492
1675199291.644,-15.137,-29.785,-20.996,-19.531,-150.879
1675199291.648,7.324,-24.902,-18.066,0.488,90.332
1675199291.651,1.465,-24.902,-15.625,-3.418,52.734
1675199291.655,-26.367,-29.297,-16.113,-25.879,-153.320
1675199291.659,-41.016,-27.832,-17.578,-37.598,-145.508
1675199291.663,-34.668,-27.832,-20.996,-28.809,43.457
1675199291.667,-21.484,-28.809,-31.250,-19.043,-40.039
1675199291.682,-7.812,-25.391,-37.598,-14.648,-117.676
1675199291.686,-10.742,-26.367,-34.668,-14.160,-21.484
1675199291.690,-25.879,-30.273,-28.320,-22.461,-29.297
1675199291.694,-24.414,-31.250,-30.273,-20.020,-94.238
1675199291.698,-5.859,-30.762,-32.227,-11.230,-166.992
1675199291.702,1.953,-29.297,-30.762,-4.883,85.938
1675199291.706,-16.113,-33.203,-31.250,-6.836,432.129
1675199291.709,-33.203,-39.062,-33.203,-20.996,83.984
1675199291.713,-22.949,-39.062,-32.227,-20.508,-283.691
1675199291.717,-7.812,-37.598,-28.809,-7.324,-131.836
1675199291.721,-8.301,-40.527,-28.320,-1.953,-34.180
1675199291.725,-17.578,-41.016,-23.926,-10.742,-145.020
1675199291.716,-29.297,-40.039,-21.973,-22.949,-145.020
1675199291.720,-33.691,-39.062,-18.555,-25.879,-44.922
1675199291.724,-25.879,-42.969,-27.832,-25.391,-70.801
1675199291.728,-19.043,-45.898,-33.203,-23.438,-112.305
1675199291.732,-22.949,-38.086,-27.832,-20.508,-45.898
1675199291.736,-33.203,-31.738,-27.344,-25.879,-25.391
1675199291.740,-42.969,-36.621,-26.855,-40.527,-41.992
1675199291.743,-44.922,-44.922,-32.227,-50.293,-79.590
1675199291.747,-26.855,-41.504,-27.344,-30.273,-44.922
1675199291.751,-20.996,-38.086,-18.066,-14.648,196.777
1675199291.755,-46.875,-41.016,-25.391,-37.109,37.109
1675199291.759,-55.176,-36.621,-30.762,-43.945,-201.172
1675199291.773,-37.598,-28.320,-26.855,-30.762,-110.352
1675199291.777,-18.555,-31.250,-27.344,-18.555,-16.602
1675199291.781,-15.625,-33.691,-30.762,-14.160,92.773
1675199291.785,-30.273,-28.809,-32.227,-29.785,-53.223
1675199291.789,-36.133,-28.809,-27.344,-31.250,-32.715
1675199291.793,-15.137,-25.879,-18.555,-11.719,392.090
1675199291.797,-9.277,-33.691,-33.691,-18.066,224.121
1675199291.800,-15.137,-44.922,-45.898,-30.762,-112.793
1675199291.804,-18.066,-37.598,-35.645,-24.902,9.277
1675199291.808,-29.297,-34.668,-29.297,-38.086,34.668
1675199291.812,-34.668,-45.410,-31.738,-50.293,-165.039
1675199291.816,-22.461,-51.270,-27.832,-28.809,-134.277
1675199291.817,-12.695,-41.992,-21.484,-13.184,-55.664
1675199291.821,-32.715,-34.180,-20.020,-30.273,-104.980
1675199291.825,-52.734,-34.180,-23.438,-47.852,-190.430
1675199291.829,-49.316,-36.621,-28.320,-44.922,-191.895
1675199291.833,-37.598,-39.551,-30.762,-28.809,-20.996
1675199291.837,-20.020,-34.668,-30.273,-18.555,102.051
1675199291.841,-27.832,-29.297,-29.785,-21.484,36.621
1675199291.844,-45.410,-31.250,-29.785,-27.344,-89.355
1675199291.848,-30.273,-28.809,-26.855,-15.625,172.852
1675199291.852,-13.184,-31.250,-33.203,-12.207,191.406
1675199291.856,-8.301,-34.180,-38.574,-12.695,-131.836
1675199291.860,-11.230,-25.391,-30.762,-7.812,-86.426
1675199291.862,-20.508,-23.438,-31.250,-20.508,-118.652
1675199291.866,-22.949,-32.227,-35.156,-30.273,-236.328
1675199291.870,-2.930,-33.203,-28.809,-17.090,-151.855
1675199291.874,14.160,-32.227,-20.020,0.488,154.297
1675199291.878,-4.395,-33.203,-18.555,-7.324,139.160
1675199291.882,-25.391,-35.156,-20.020,-31.250,-41.504
1675199291.886,-30.762,-37.109,-24.414,-40.527,-49.316
1675199291.889,-17.578,-34.180,-25.879,-22.949,119.141
1675199291.893,-10.742,-37.109,-27.344,-2.930,361.328
1675199291.897,-34.668,-41.016,-38.574,-20.996,24.902
1675199291.901,-47.852,-39.551,-36.133,-36.621,-234.863
1675199291.905,-53.711,-38.086,-29.297,-38.086,-164.062
1675199291.907,-49.316,-39.062,-35.156,-34.668,-122.559
1675199291.911,-35.156,-40.527,-38.574,-23.438,-143.066
1675199291.915,-39.062,-38.086,-32.715,-22.461,-61.523
1675199291.919,-54.199,-38.086,-28.809,-35.645,-46.387
1675199291.923,-62.500,-41.504,-30.273,-44.922,-121.094
1675199291.927,-51.758,-40.039,-30.762,-31.738,-142.090
1675199291.931,-29.297,-37.109,-30.273,-13.184,-18.555
1675199291.934,-25.879,-38.086,-24.902,-6.836,269.043
1675199291.938,-51.270,-41.992,-28.809,-36.133,83.496
1675199291.942,-61.035,-42.480,-28.320,-56.641,-285.156
1675199291.946,-41.504,-41.016,-25.391,-47.363,-186.523
1675199291.950,-22.461,-35.645,-31.250,-33.203,-36.133
1675199291.953,-19.531,-30.273,-25.391,-27.832,-63.477
1675199291.957,-28.320,-23.926,-21.973,-39.062,-197.266
1675199291.961,-42.480,-21.973,-23.438,-47.852,-31.738
1675199291.965,-41.992,-24.414,-24.414,-41.992,126.465
1675199291.969,-29.297,-27.344,-30.762,-36.621,-146.484
1675199291.973,-31.738,-32.227,-35.156,-38.574,-187.500
1675199291.977,-44.434,-33.691,-36.133,-41.016,113.770
1675199291.980,-53.223,-29.297,-27.832,-50.293,180.664
1675199291.984,-47.363,-31.738,-34.668,-54.199,-147.461
1675199291.988,-22.949,-32.227,-40.527,-38.574,-152.344
1675199291.992,-14.160,-28.809,-32.715,-26.367,-64.453
1675199291.996,-25.391,-26.855,-31.250,-29.785,-123.535
1675199291.999,-41.992,-24.902,-27.344,-42.480,-191.895
1675199292.003,-46.875,-26.855,-25.879,-41.016,-162.109
1675199292.007,-29.297,-31.250,-23.926,-20.508,-15.137
1675199292.011,-18.066,-31.738,-25.879,-13.184,-43.457
1675199292.015,-37.598,-34.180,-35.156,-24.902,-113.770
1675199292.019,-52.734,-37.598,-37.598,-39.551,-106.445
1675199292.023,-47.852,-35.156,-33.691,-38.086,256.836
1675199292.026,-35.645,-33.691,-35.156,-25.879,257.812
1675199292.030,-26.367,-36.621,-41.504,-28.320,-89.355
1675199292.034,-30.273,-31.250,-38.574,-33.203,-4.395
1675199292.038,-39.551,-21.484,-32.227,-39.062,-96.680
1675199292.042,-37.598,-22.949,-37.598,-44.434,-259.766
1675199292.042,-25.391,-33.203,-43.945,-39.551,-190.918
1675199292.046,-15.137,-34.668,-39.062,-21.973,-25.391
1675199292.050,-7.812,-26.855,-26.855,-7.324,96.191
1675199292.054,-15.625,-27.344,-20.508,-18.555,0.000
1675199292.058,-20.020,-27.832,-21.484,-26.855,-227.539
1675199292.062,-9.766,-30.762,-18.555,-8.301,90.820
1675199292.066,8.301,-28.809,-15.137,9.766,497.070
1675199292.069,0.977,-30.273,-19.531,3.906,152.344
1675199292.073,-25.391,-40.527,-30.273,-18.066,-148.926
1675199292.077,-23.926,-39.551,-26.855,-8.301,42.480
1675199292.081,-20.020,-32.715,-23.926,0.977,59.082
1675199292.085,-25.391,-29.785,-29.785,-13.672,-173.828
1675199292.102,-30.273,-26.855,-27.344,-17.578,-117.188
1675199292.106,-40.039,-24.902,-27.832,-30.273,-91.797
1675199292.110,-45.410,-26.855,-30.762,-34.180,-183.594
1675199292.114,-41.992,-31.250,-28.809,-33.691,-236.328
1675199292.118,-21.973,-30.273,-29.297,-20.996,-135.742
1675199292.122,-6.348,-25.391,-33.203,-10.254,55.664
1675199292.126,-16.602,-27.832,-26.367,-24.902,82.031
1675199292.129,-26.367,-29.297,-23.926,-37.598,-72.754
1675199292.133,-19.531,-24.414,-28.809,-32.227,-142.090
1675199292.137,-5.859,-23.926,-28.809,-16.602,219.727
1675199292.141,-11.719,-27.832,-30.273,-24.902,189.453
1675199292.145,-30.762,-28.809,-32.227,-44.434,-103.516
1675199292.147,-39.551,-25.391,-27.832,-45.898,-116.211
1675199292.151,-36.621,-23.926,-29.785,-39.551,-220.215
1675199292.155,-20.996,-25.391,-39.551,-33.203,-154.785
1675199292.159,-9.766,-24.414,-41.504,-25.391,-89.844
1675199292.163,-16.602,-24.414,-35.156,-29.297,96.191
1675199292.167,-28.320,-24.902,-32.715,-42.480,201.172
1675199292.171,-29.785,-26.367,-36.621,-40.527,-129.395
1675199292.174,-14.160,-28.320,-39.062,-22.949,-208.496
1675199292.178,-5.371,-25.879,-31.250,-1.953,128.418
1675199292.182,-13.672,-22.461,-23.438,3.418,280.273
1675199292.186,-31.738,-21.484,-27.344,-20.996,-90.332
1675199292.190,-38.086,-21.973,-27.344,-29.785,-194.336
1675199292.192,-21.973,-21.484,-25.391,-15.137,-87.891
1675199292.196,-15.625,-27.832,-29.785,-15.625,-88.867
1675199292.200,-23.926,-32.227,-28.809,-25.879,-126.953
1675199292.204,-35.156,-28.809,-26.367,-34.180,-98.145
1675199292.208,-41.992,-30.273,-26.367,-39.062,-70.312
1675199292.212,-24.414,-30.273,-28.320,-29.297,-60.547
1675199292.216,-4.883,-26.367,-29.297,-19.043,-47.852
1675199292.219,-9.766,-20.508,-19.043,-12.695,-2.441
1675199292.223,-22.949,-18.066,-13.672,-16.113,175.293
1675199292.227,-40.527,-27.832,-28.320,-31.250,26.367
1675199292.231,-33.691,-29.297,-35.156,-31.250,-215.332
1675199292.235,-17.090,-26.367,-32.227,-17.090,-115.234
1675199292.237,-19.531,-21.973,-30.273,-13.184,-56.152
1675199292.241,-31.250,-23.438,-32.227,-31.250,-135.254
1675199292.245,-35.645,-27.832,-31.250,-36.621,-174.316
1675199292.249,-22.949,-29.785,-28.809,-27.832,148.926
1675199292.253,-14.160,-41.504,-34.668,-17.578,373.047
1675199292.257,-25.391,-46.387,-39.062,-17.090,124.512
1675199292.261,-36.133,-37.598,-23.438,-23.438,-72.754
1675199292.264,-39.062,-29.297,-12.207,-23.926,63.477
1675199292.268,-29.785,-30.273,-18.555,-17.090,146.484
1675199292.272,-24.414,-40.527,-24.902,-13.672,-144.531
1675199292.276,-26.855,-41.504,-24.414,-4.883,-129.395
1675199292.280,-36.621,-37.598,-22.949,-15.625,-122.070
1675199292.283,-45.410,-37.598,-21.484,-26.855,-196.289
1675199292.287,-35.645,-37.598,-23.926,-24.902,-213.867
1675199292.291,-16.113,-33.691,-20.020,-20.020,-169.922
1675199292.295,-13.184,-30.762,-21.973,-21.484,-90.820
1675199292.299,-28.320,-34.668,-29.297,-39.062,-176.270
1675199292.303,-41.016,-39.062,-34.180,-52.246,-139.648
1675199292.307,-33.203,-33.691,-28.320,-49.316,-39.551
1675199292.310,-12.695,-27.832,-22.461,-31.738,349.121
1675199292.314,-6.836,-25.879,-27.832,-19.531,386.719
1675199292.318,-20.996,-29.297,-33.691,-27.344,-66.406
1675199292.322,-34.180,-28.809,-38.086,-42.969,-122.559
1675199292.326,-39.062,-29.297,-35.645,-42.969,-142.578
1675199292.328,-24.414,-32.715,-36.133,-30.273,-99.121
1675199292.332,-18.066,-34.180,-41.016,-25.391,-42.480
1675199292.336,-30.273,-31.250,-35.156,-26.367,83.496
1675199292.340,-45.898,-28.809,-28.809,-33.691,14.160
1675199292.344,-50.781,-27.344,-30.762,-38.574,-233.887
1675199292.348,-35.645,-29.785,-33.691,-27.832,-134.766
1675199292.352,-19.531,-35.645,-36.133,-6.836,182.617
1675199292.355,-29.785,-31.738,-33.203,-5.371,300.781
1675199292.359,-43.457,-26.367,-30.273,-29.785,-83.984
1675199292.363,-32.715,-21.973,-29.785,-34.668,-264.648
1675199292.367,-20.020,-19.531,-30.273,-29.785,-100.586
1675199292.371,-4.883,-23.438,-30.273,-21.973,-47.363
1675199292.375,-8.789,-25.391,-25.879,-15.137,-169.922
1675199292.379,-26.855,-25.879,-25.391,-27.344,-179.199
1675199292.383,-26.855,-23.926,-28.809,-32.715,-130.859
1675199292.387,-20.020,-25.879,-26.855,-23.438,-131.836
1675199292.391,-20.020,-33.691,-29.297,-25.391,-92.285
1675199292.395,-15.137,-36.133,-24.414,-24.414,1.465
1675199292.399,-11.719,-36.621,-14.160,-13.672,206.543
1675199292.402,-30.762,-39.551,-25.391,-35.156,22.949
1675199292.406,-23.926,-32.715,-30.273,-36.621,-257.324
1675199292.410,-5.859,-22.461,-28.320,-16.602,-69.824
1675199292.414,-13.672,-23.926,-35.645,-21.973,22.461
1675199292.418,-25.879,-20.508,-34.180,-25.391,-135.254
1675199292.433,-35.645,-16.113,-27.832,-25.879,-237.793
1675199292.437,-33.691,-25.879,-23.438,-25.391,-91.797
1675199292.441,-25.391,-30.273,-28.320,-19.531,31.250
1675199292.445,-24.414,-29.297,-38.086,-21.484,-17.578
1675199292.449,-35.645,-24.902,-31.738,-29.785,-124.512
1675199292.453,-46.387,-20.020,-23.926,-32.715,13.672
1675199292.457,-41.504,-26.367,-29.297,-25.391,484.863
1675199292.460,-30.273,-32.715,-35.645,-24.414,225.098
1675199292.464,-22.461,-32.715,-37.598,-28.320,-137.695
1675199292.468,-24.902,-26.367,-30.273,-22.949,-60.547
1675199292.472,-34.180,-20.020,-25.879,-33.203,-133.789
1675199292.476,-33.203,-27.344,-29.297,-45.410,-243.652
1675199292.477,-20.020,-31.738,-28.320,-34.668,-185.547
1675199292.481,-12.695,-25.879,-26.367,-23.926,-101.562
1675199292.485,-29.297,-27.344,-30.762,-33.203,-114.746
1675199292.489,-46.387,-30.762,-31.250,-47.363,-184.082
1675199292.493,-43.457,-28.809,-30.762,-41.504,-133.301
1675199292.497,-32.715,-28.809,-29.785,-23.438,108.887
1675199292.501,-26.367,-36.133,-31.738,-20.996,131.348
1675199292.504,-31.738,-37.598,-36.621,-28.320,-3.906
1675199292.508,-42.480,-32.715,-33.203,-24.902,-126.465
1675199292.512,-33.691,-31.250,-26.855,-13.184,135.254
1675199292.516,-16.602,-31.250,-33.203,-3.418,136.230
1675199292.520,-4.395,-33.203,-33.691,5.859,-86.426
1675199292.522,-15.625,-31.250,-26.855,3.906,14.160
1675199292.526,-24.902,-25.391,-24.902,-4.883,5.859
1675199292.530,-20.996,-26.855,-23.438,-14.648,-41.016
1675199292.534,-15.137,-29.297,-21.973,-7.812,-76.172
1675199292.538,2.441,-24.414,-15.625,11.719,52.734
1675199292.542,-0.488,-24.902,-16.113,8.789,184.082
1675199292.546,-27.344,-29.785,-22.949,-10.742,-13.184
1675199292.549,-39.551,-31.250,-20.508,-21.973,-171.875
1675199292.553,-31.738,-34.180,-27.344,-19.531,40.039
1675199292.557,-18.555,-34.180,-31.738,-3.906,299.805
1675199292.561,-19.043,-35.645,-30.273,-5.371,-32.715
1675199292.565,-42.480,-32.227,-24.414,-28.809,-218.262
1675199292.567,-54.688,-23.926,-22.949,-43.945,-185.059
1675199292.571,-39.062,-25.879,-27.832,-40.527,-184.082
1675199292.575,-24.414,-28.809,-31.738,-25.391,-133.789
1675199292.579,-22.949,-23.926,-27.832,-16.602,-50.781
1675199292.583,-28.320,-23.438,-27.344,-29.785,-41.504
1675199292.587,-36.621,-23.926,-32.715,-39.551,-31.738
1675199292.591,-34.180,-20.996,-31.738,-36.621,-15.137
1675199292.594,-16.113,-27.832,-34.668,-32.715,31.250
1675199292.598,-11.719,-36.133,-35.156,-20.996,182.617
1675199292.602,-34.180,-35.645,-32.227,-25.879,0.488
1675199292.606,-41.992,-31.250,-25.391,-34.668,-211.914
1675199292.610,-30.762,-32.227,-21.484,-24.414,-45.898
1675199292.612,-17.578,-32.715,-21.973,-13.672,21.484
1675199292.616,-22.461,-32.227,-24.902,-15.625,-59.570
1675199292.620,-40.527,-27.832,-26.855,-24.414,-90.820
1675199292.624,-45.898,-20.020,-27.832,-23.438,34.180
1675199292.628,-33.691,-24.902,-29.785,-11.230,105.469
1675199292.632,-19.043,-33.691,-29.785,-2.441,-53.711
1675199292.636,-14.648,-30.762,-28.809,0.977,-53.223
1675199292.639,-19.531,-20.508,-23.926,3.906,110.352
1675199292.643,-32.715,-20.020,-21.973,-3.906,157.227
1675199292.647,-37.598,-23.438,-23.926,-20.020,-193.359
1675199292.651,-26.367,-23.926,-29.785,-16.602,-227.051
1675199292.655,-18.066,-26.367,-32.227,-14.160,-90.332
1675199292.657,-34.668,-26.855,-27.832,-19.043,-100.098
1675199292.661,-50.781,-24.902,-28.809,-33.203,-177.734
1675199292.665,-35.156,-21.973,-31.738,-29.297,-131.836
1675199292.669,-13.184,-22.949,-32.715,-10.254,-25.879
1675199292.673,-1.465,-18.066,-34.180,-6.348,-86.914
1675199292.677,0.000,-12.695,-34.180,-4.883,-23.438
1675199292.681,-10.254,-8.789,-30.273,-12.207,43.945
1675199292.684,-12.695,-6.836,-32.227,-15.137,161.133
1675199292.688,-4.395,-8.789,-40.039,-11.719,76.172
1675199292.692,0.000,-11.230,-39.551,-5.859,-86.426
1675199292.696,-5.859,-15.625,-34.668,-4.395,-1.953
1675199292.700,-24.414,-21.973,-33.203,-16.113,-10.254
1675199292.702,-37.598,-23.926,-30.273,-21.973,-143.066
1675199292.706,-32.227,-25.879,-34.180,-19.531,-227.539
1675199292.710,-20.020,-26.367,-37.598,-5.859,83.496
1675199292.714,-23.926,-25.391,-26.855,-4.883,247.070
1675199292.718,-37.109,-27.344,-27.344,-22.949,-84.473
1675199292.722,-47.363,-24.414,-34.668,-35.156,-223.145
1675199292.726,-37.109,-25.391,-29.785,-17.090,92.285
1675199292.729,-23.438,-23.926,-22.461,1.953,333.008
1675199292.733,-38.086,-23.438,-26.367,-19.043,-38.574
1675199292.737,-55.664,-28.809,-34.180,-38.086,-158.691
1675199292.741,-63.477,-29.785,-35.156,-42.969,-56.641
1675199292.745,-53.711,-30.762,-32.715,-43.945,-91.797
1675199292.749,-35.156,-37.109,-27.832,-39.062,-154.785
1675199292.753,-30.273,-40.527,-27.344,-34.668,-107.422
1675199292.757,-40.039,-35.645,-26.367,-37.109,-88.867
1675199292.761,-44.434,-34.668,-25.391,-44.434,-123.535
1675199292.765,-30.273,-37.109,-24.902,-37.598,-202.148
1675199292.769,-12.207,-40.527,-21.973,-22.949,-104.004
1675199292.773,-11.230,-43.457,-27.832,-13.672,237.793
1675199292.776,-29.785,-42.969,-35.156,-20.020,92.773
1675199292.780,-44.434,-40.039,-34.180,-34.180,-224.121
1675199292.784,-36.133,-37.109,-26.855,-33.203,-137.695
1675199292.788,-20.996,-36.133,-26.367,-19.531,10.254
1675199292.792,-23.438,-38.574,-31.250,-22.461,-76.660
1675199292.792,-37.598,-40.527,-31.738,-31.738,-128.906
1675199292.796,-49.805,-34.668,-30.273,-35.156,-155.762
1675199292.800,-49.316,-31.738,-34.180,-36.621,-153.320
1675199292.804,-32.227,-36.133,-37.109,-28.320,-62.988
1675199292.808,-14.648,-35.156,-36.133,-12.207,-98.145
1675199292.812,-21.484,-31.738,-28.320,-3.418,75.195
1675199292.816,-41.016,-25.879,-23.926,-16.113,395.508
1675199292.819,-50.781,-26.367,-33.691,-35.156,25.879
1675199292.823,-29.297,-27.344,-28.809,-28.809,-234.863
1675199292.827,-21.973,-27.832,-26.367,-18.066,-61.035
1675199292.831,-39.551,-34.180,-34.668,-29.297,-44.922
1675199292.835,-54.199,-39.062,-35.156,-39.062,-148.438
1675199292.843,-53.223,-37.598,-31.738,-36.621,-192.871
1675199292.847,-31.738,-30.762,-28.809,-25.391,-50.781
1675199292.851,-19.043,-32.227,-30.273,-18.555,14.160
1675199292.855,-23.438,-36.133,-33.203,-25.879,-79.590
1675199292.859,-33.203,-38.574,-31.738,-34.180,-139.648
1675199292.863,-26.367,-38.086,-25.879,-29.785,-32.227
1675199292.867,-26.367,-36.133,-24.902,-36.621,10.742
1675199292.870,-28.320,-36.621,-36.133,-46.387,-115.234
1675199292.874,-27.832,-35.156,-41.992,-40.527,-55.664
1675199292.878,-47.852,-36.621,-40.527,-44.922,88.867
1675199292.882,-58.594,-39.062,-43.457,-56.152,-90.820
1675199292.886,-41.016,-37.109,-41.992,-50.293,-246.582
1675199292.897,-20.020,-36.133,-38.574,-32.715,-108.398
1675199292.901,-25.879,-37.598,-35.645,-28.809,-37.109
1675199292.905,-46.875,-36.133,-30.273,-35.645,-23.926
1675199292.909,-60.059,-36.133,-30.762,-45.410,-92.773
1675199292.913,-45.410,-36.621,-22.949,-37.109,39.551
1675199292.917,-23.926,-34.180,-21.484,-19.043,473.145
1675199292.921,-29.297,-35.645,-32.715,-23.438,318.848
1675199292.924,-45.898,-34.668,-31.250,-37.109,-26.855
1675199292.928,-48.828,-25.879,-27.344,-36.133,52.734
1675199292.932,-41.992,-23.438,-34.180,-41.504,59.570
1675199292.936,-33.203,-30.273,-42.480,-38.086,-145.508
1675199292.940,-27.832,-33.203,-42.480,-27.344,-99.121
1675199292.942,-41.992,-35.645,-42.480,-41.504,-85.938
1675199292.946,-49.805,-36.133,-40.527,-55.664,-150.391
1675199292.950,-35.156,-28.320,-35.645,-50.781,-218.262
1675199292.954,-10.254,-20.508,-33.691,-32.227,-159.668
1675199292.958,-1.953,-20.508,-36.133,-23.926,-23.438
1675199292.962,-10.742,-23.926,-41.504,-40.039,-32.715
1675199292.966,-28.320,-27.344,-37.598,-52.734,-32.715
1675199292.969,-29.297,-27.832,-37.109,-48.340,39.551
1675199292.973,-9.766,-29.785,-41.016,-20.996,378.906
1675199292.977,-8.301,-31.738,-41.504,-6.836,318.359
1675199292.981,-22.461,-32.227,-35.156,-12.207,-96.191
1675199292.985,-31.250,-33.691,-27.344,-14.160,-158.691
1675199292.987,-30.273,-37.598,-35.156,-27.832,-177.734
1675199292.991,-20.020,-34.180,-40.039,-19.043,-178.223
1675199292.995,-14.160,-31.738,-32.715,-5.859,-122.559
1675199292.999,-27.344,-34.668,-29.785,-15.625,54.199
1675199293.003,-43.457,-34.668,-32.715,-26.367,107.910
1675199293.007,-40.039,-34.668,-31.738,-36.133,-156.250
1675199293.011,-30.273,-36.133,-33.203,-33.203,-169.922
1675199293.014,-21.484,-34.180,-41.992,-20.996,197.266
1675199293.018,-26.367,-35.645,-45.410,-24.902,272.461
1675199293.022,-43.945,-39.062,-40.527,-45.898,-142.578
1675199293.026,-41.016,-32.715,-36.133,-55.664,-173.828
1675199293.030,-29.297,-28.809,-35.645,-45.898,-38.086
1675199293.033,-19.531,-33.691,-35.645,-37.109,-43.945
1675199293.037,-20.020,-34.668,-37.598,-38.574,-99.609
1675199293.041,-34.180,-30.762,-31.250,-44.922,-113.770
1675199293.045,-35.156,-35.156,-26.855,-45.898,-110.352
1675199293.049,-19.043,-35.645,-34.180,-37.598,-133.789
1675199293.053,-3.906,-30.273,-30.273,-22.949,-67.871
1675199293.057,-5.859,-32.715,-24.902,-18.066,1.953
1675199293.060,-15.625,-32.715,-21.484,-18.066,165.039
1675199293.064,-27.832,-36.133,-24.414,-22.949,19.043
1675199293.068,-28.809,-41.992,-31.250,-21.973,-202.148
1675199293.072,-13.672,-40.527,-34.180,-7.324,-65.918
1675199293.076,-14.160,-42.480,-32.227,-9.277,-72.266
1675199293.077,-25.879,-36.133,-26.367,-22.949,-190.430
1675199293.081,-33.691,-28.320,-25.879,-36.133,-224.609
1675199293.085,-21.973,-28.809,-28.809,-26.855,0.977
1675199293.089,8.301,-31.738,-35.645,-3.418,173.828
1675199293.093,-4.883,-38.574,-39.062,-14.648,-38.574
1675199293.097,-48.340,-45.410,-34.180,-44.434,-66.406
1675199293.101,-53.711,-41.992,-30.273,-49.805,131.836
1675199293.104,-33.203,-38.086,-27.344,-24.902,274.902
1675199293.108,-20.508,-39.551,-29.785,-20.996,-20.996
1675199293.112,-15.625,-34.180,-28.320,-27.832,-159.668
1675199293.116,-29.297,-33.203,-25.391,-37.109,-117.188
1675199293.120,-47.852,-37.109,-25.879,-48.340,-172.852
1675199293.124,-47.363,-37.598,-33.691,-53.223,-196.289
1675199293.128,-29.297,-39.062,-41.992,-40.527,-132.324
1675199293.132,-17.090,-40.039,-40.527,-24.414,-27.832
1675199293.136,-30.273,-37.109,-40.039,-33.691,-55.176
1675199293.140,-39.551,-30.762,-33.203,-40.527,-176.270
1675199293.144,-37.109,-31.738,-27.832,-34.668,-126.465
1675199293.148,-26.367,-36.621,-28.320,-17.578,185.059
1675199293.151,-19.531,-39.062,-26.367,-8.301,199.707
1675199293.155,-33.203,-41.992,-31.250,-15.137,-79.102
1675199293.159,-39.551,-35.645,-27.344,-16.602,-147.461
1675199293.163,-37.598,-29.297,-22.949,-17.090,-56.641
1675199293.167,-30.273,-34.180,-28.320,-16.602,-150.391
1675199293.167,-22.461,-33.203,-28.809,-15.625,-90.820
1675199293.171,-25.391,-31.250,-24.414,-19.043,30.273
1675199293.175,-48.828,-35.645,-24.414,-27.344,-36.621
1675199293.179,-66.406,-34.180,-25.879,-42.969,-150.391
1675199293.183,-46.875,-31.250,-20.996,-36.621,-156.250
1675199293.187,-25.391,-35.156,-21.484,-16.602,116.699
1675199293.191,-31.250,-40.039,-31.250,-25.879,389.648
1675199293.194,-48.340,-42.480,-37.109,-46.875,75.195
1675199293.198,-56.152,-42.480,-33.691,-51.758,-170.410
1675199293.202,-43.457,-35.156,-29.297,-37.109,44.434
1675199293.206,-28.809,-34.180,-29.297,-25.391,88.867
1675199293.210,-28.809,-39.062,-30.762,-33.203,-101.074
1675199293.227,-35.156,-39.062,-28.809,-43.945,-160.156
1675199293.231,-47.363,-44.922,-32.227,-54.688,-176.758
1675199293.235,-38.574,-44.434,-34.668,-48.828,-162.598
1675199293.239,-15.625,-44.434,-41.504,-28.809,-102.539
1675199293.243,-23.438,-48.828,-43.945,-24.902,-46.875
1675199293.247,-39.551,-42.480,-34.180,-28.809,92.773
1675199293.251,-43.945,-36.621,-32.715,-34.668,81.055
1675199293.254,-39.551,-39.551,-38.086,-33.203,-129.395
1675199293.258,-19.531,-37.598,-38.086,-13.672,-66.895
1675199293.262,-9.766,-34.180,-33.203,-4.395,205.078
1675199293.266,-29.297,-35.156,-35.156,-22.949,36.133
1675199293.270,-44.434,-31.738,-32.227,-38.086,-168.457
1675199293.272,-40.527,-30.273,-32.715,-31.250,-7.812
1675199293.276,-30.273,-33.691,-40.527,-23.438,41.992
1675199293.280,-28.809,-32.715,-37.598,-23.926,0.977
1675199293.284,-39.551,-33.203,-37.598,-34.668,-51.758
1675199293.288,-41.504,-29.297,-33.203,-39.551,-14.648
1675199293.292,-32.227,-20.508,-23.926,-29.785,111.328
1675199293.296,-26.855,-28.320,-32.227,-28.809,25.879
1675199293.299,-25.879,-33.691,-37.598,-29.297,-26.855
1675199293.303,-27.832,-26.855,-32.227,-26.367,86.914
1675199293.307,-31.250,-27.832,-31.738,-35.156,121.582
1675199293.311,-36.621,-35.156,-37.598,-53.223,-161.621
1675199293.315,-32.715,-37.109,-34.668,-43.457,-129.395
1675199293.317,-17.578,-33.691,-28.809,-22.949,-3.418
1675199293.321,-25.391,-27.344,-31.738,-34.180,-66.895
1675199293.325,-48.828,-28.320,-26.367,-51.270,-183.594
1675199293.329,-46.387,-34.180,-24.414,-40.527,-129.883
1675199293.333,-25.879,-35.156,-29.785,-21.973,24.414
1675199293.337,-9.766,-34.668,-29.785,-11.719,77.148
1675199293.341,-25.879,-37.109,-33.691,-21.973,24.902
1675199293.344,-43.457,-37.598,-24.902,-34.668,-78.613
1675199293.348,-41.504,-31.738,-20.020,-30.273,80.078
1675199293.352,-37.598,-36.621,-31.250,-33.203,33.203
1675199293.356,-23.926,-40.039,-29.297,-34.180,-191.406
1675199293.360,-20.508,-31.250,-18.555,-25.879,-111.816
1675199293.362,-43.945,-31.250,-22.461,-39.551,-96.680
1675199293.366,-56.152,-33.203,-29.785,-50.781,-160.645
1675199293.370,-45.410,-32.227,-21.973,-39.551,-198.730
1675199293.374,-26.367,-38.086,-19.043,-27.344,-12.695
1675199293.378,-30.273,-36.133,-23.438,-27.832,133.301
1675199293.382,-53.223,-34.180,-25.391,-44.922,-55.176
1675199293.386,-58.594,-32.227,-23.438,-52.734,-193.848
1675199293.389,-39.551,-30.762,-22.949,-29.785,145.996
1675199293.393,-28.809,-30.762,-21.973,-17.578,423.828
1675199293.397,-39.551,-33.203,-21.973,-34.668,34.668
1675199293.401,-47.852,-34.668,-20.508,-39.551,-176.270
1675199293.405,-68.848,-35.156,-22.949,-53.711,-154.297
1675199293.408,-58.105,-37.109,-22.949,-44.434,-169.922
1675199293.412,-32.715,-30.273,-17.090,-17.090,-167.969
1675199293.416,-38.574,-19.531,-19.531,-20.508,-105.469
1675199293.420,-38.086,-20.020,-22.949,-22.949,-65.918
1675199293.424,-41.504,-23.438,-20.508,-20.508,-165.527
1675199293.428,-51.758,-22.949,-18.066,-32.715,-145.020
1675199293.432,-31.250,-25.391,-20.020,-13.184,11.230
1675199293.435,-19.043,-29.297,-22.949,7.324,269.531
1675199293.439,-40.527,-25.879,-25.879,-19.531,123.047
1675199293.443,-46.387,-16.113,-27.344,-32.715,-249.023
1675199293.447,-34.180,-19.531,-27.344,-28.320,-142.090
1675199293.451,-33.691,-26.367,-32.715,-29.785,-7.812
1675199293.452,-23.438,-24.902,-33.691,-22.949,-80.078
1675199293.456,-20.020,-27.832,-25.879,-20.020,-33.203
1675199293.460,-37.109,-22.461,-19.531,-37.109,88.867
1675199293.464,-37.109,-27.832,-28.809,-43.457,47.852
1675199293.468,-26.367,-33.691,-35.645,-38.086,-101.562
1675199293.472,-23.438,-33.203,-36.133,-34.180,0.000
1675199293.476,-28.809,-36.133,-39.551,-34.668,232.422
1675199293.479,-48.828,-38.086,-40.039,-47.363,227.051
1675199293.483,-56.641,-38.086,-40.527,-58.105,-140.625
1675199293.487,-27.344,-30.762,-35.645,-28.809,-203.613
1675199293.491,-9.277,-25.391,-36.133,-9.277,-96.191
1675199293.495,-17.090,-26.367,-34.668,-20.020,-173.828
1675199293.500,-27.832,-27.832,-34.668,-26.855,-241.699
1675199293.504,-26.855,-30.273,-36.133,-24.902,-196.289
1675199293.508,-8.789,-26.855,-35.156,-14.648,-46.875
1675199293.512,8.301,-24.902,-41.504,-1.953,-12.695
1675199293.516,-1.465,-30.273,-41.016,-3.906,-80.078
1675199293.520,-18.066,-26.855,-36.133,-15.137,39.551
1675199293.524,-15.625,-21.484,-31.738,-7.324,195.312
1675199293.527,-3.418,-24.414,-32.227,-4.883,43.457
1675199293.531,14.160,-24.414,-29.785,-9.277,-129.395
1675199293.535,16.113,-21.484,-24.902,-2.441,-54.199
1675199293.539,-6.348,-21.484,-32.715,-16.113,-44.434
1675199293.543,-13.672,-20.508,-33.691,-30.762,-159.180
1675199293.542,-0.488,-21.484,-30.273,-24.414,-147.461
1675199293.546,2.930,-26.367,-33.203,-14.648,-10.742
1675199293.550,-0.488,-26.855,-35.156,-19.531,76.660
1675199293.554,-19.531,-26.367,-32.227,-32.715,-67.871
1675199293.558,-36.133,-27.344,-33.691,-37.598,-149.902
1675199293.562,-23.926,-24.414,-31.250,-22.461,73.730
1675199293.566,-3.418,-21.973,-25.391,1.465,481.445
1675199293.569,-4.395,-27.344,-27.832,2.930,306.641
1675199293.573,-16.602,-36.133,-29.785,-5.859,-120.117
1675199293.577,-27.344,-39.062,-32.715,-15.137,-201.172
1675199293.581,-19.043,-35.645,-35.645,-15.137,-251.953
1675199293.585,-2.441,-33.691,-31.738,-2.441,-189.453
1675199293.603,2.441,-30.273,-29.297,0.000,-59.570
1675199293.607,-9.766,-26.855,-32.715,-13.184,-72.266
1675199293.611,-31.250,-27.344,-34.668,-32.227,-174.805
1675199293.615,-27.344,-26.855,-37.598,-36.133,-287.109
1675199293.619,-10.254,-27.832,-34.180,-24.414,-138.184
1675199293.623,-1.953,-28.809,-27.344,-15.137,134.277
1675199293.627,-17.578,-34.180,-35.156,-19.531,77.637
1675199293.630,-39.062,-32.227,-33.203,-29.785,-58.105
1675199293.634,-35.156,-27.344,-23.438,-27.344,-62.500
1675199293.638,-13.672,-31.250,-27.832,-7.324,284.668
1675199293.642,-8.789,-32.227,-34.180,-1.953,214.355
1675199293.646,-25.879,-32.715,-31.738,-12.207,-133.301
1675199293.647,-37.109,-34.180,-28.320,-22.461,-67.383
1675199293.651,-40.039,-41.992,-27.832,-24.902,-103.027
1675199293.655,-32.227,-44.434,-27.832,-16.602,-61.523
1675199293.659,-23.926,-37.109,-26.367,-15.625,-55.664
1675199293.663,-29.785,-36.133,-20.996,-14.648,72.754
1675199293.667,-34.668,-34.668,-25.879,-21.484,243.652
1675199293.671,-37.109,-33.691,-35.156,-36.133,5.371
1675199293.674,-26.855,-41.016,-38.086,-32.715,-147.949
1675199293.678,-4.883,-35.156,-28.320,-7.812,61.035
1675199293.682,-4.395,-28.320,-19.043,0.977,260.742
1675199293.686,-27.832,-34.668,-24.902,-24.902,-104.004
1675199293.690,-20.996,-29.785,-23.926,-31.250,-225.098
1675199293.707,-7.324,-31.250,-26.367,-24.414,-76.172
1675199293.711,-5.371,-31.250,-33.203,-17.090,-84.961
1675199293.715,-4.395,-21.973,-33.203,-8.789,-165.039
1675199293.719,-15.137,-26.855,-37.109,-21.973,-130.371
1675199293.723,-26.855,-26.855,-34.180,-32.715,-150.391
1675199293.727,-21.973,-23.926,-33.691,-30.762,-102.539
1675199293.731,-7.324,-30.762,-40.527,-22.461,38.086
1675199293.734,-12.207,-32.715,-42.969,-24.414,-2.930
1675199293.738,-27.832,-28.320,-38.574,-32.715,125.488
1675199293.742,-42.969,-27.344,-35.645,-41.992,53.223
1675199293.746,-44.922,-33.203,-38.574,-40.527,-196.289
1675199293.750,-27.832,-37.109,-37.598,-23.438,-57.129
1675199293.737,-24.414,-37.109,-33.203,-18.066,-32.715
1675199293.741,-38.086,-34.180,-31.738,-23.438,-120.117
1675199293.745,-48.828,-28.320,-32.227,-29.297,-100.586
1675199293.749,-41.992,-29.297,-34.668,-25.391,46.387
1675199293.753,-20.996,-34.668,-35.156,-11.719,201.172
1675199293.757,-19.043,-33.203,-40.527,-18.555,50.781
1675199293.761,-36.133,-34.180,-40.527,-29.297,-7.812
1675199293.764,-41.016,-34.668,-33.203,-36.133,-22.949
1675199293.768,-35.156,-36.621,-34.180,-35.645,-145.996
